##TITLE=PROPANE, 2-BROMO-2-METHYL-
##JCAMP-DX=4.24
##DATA TYPE=INFRARED SPECTRUM
##CLASS=COBLENTZ III
##ORIGIN=DOW CHEMICAL COMPANY
##OWNER=COBLENTZ SOCIETY
Collection (C) 2009 copyright by the U.S. Secretary of Commerce
on behalf of the United States of America. All rights reserved.
##DATE=1960/01/10
##NAMES=2-bromo-2-methylpropane
##CAS REGISTRY NO=507-19-7
##MOLFORM=C4 H9 Br
##SOURCE REFERENCE=COBLENTZ NO. 10004
##$NIST SOURCE=COBLENTZ
##$NIST IMAGE=cob10004
##SPECTROMETER/DATA SYSTEM=DOW KBr FOREPRISM-GRATING
##INSTRUMENT PARAMETERS=BLAZED AT 3.5, 12.0, 20.0 MICRON, CHANGED AT 5.0, 7.5, 14.9 MICRON
##STATE=SOLUTION (10% IN CCl4 FOR 3800-1340, AND 10% IN CS2 FOR 1340-430 CM^-^1)
##PATH LENGTH=0.011, 0.011 CM
$$SPECTRAL CONTAMINATION DUE TO CCl4 AROUND 1550, AND CS2 AROUND 860, 650 CM^-^1
##SAMPLING PROCEDURE=TRANSMISSION
##RESOLUTION=4
##DATA PROCESSING=DIGITIZED BY NIST FROM HARD COPY (FROM TWO SEGMENTS)
##XUNITS=1/CM
##YUNITS=TRANSMITTANCE
##XFACTOR=1.000000
##YFACTOR=1
##DELTAX=0.869566
##FIRSTX=424.348
##LASTX=3750.44
##FIRSTY=0.963
##MAXX=3750.44
##MINX=424.348
##MAXY=1.073
##MINY=0
##NPOINTS=3826
##XYDATA=(X++(Y..Y))
424.348000 0.9630 0.9630 0.9630 0.9630 0.9630
428.695829 0.9630 0.9630 0.9630 0.9640 0.9640
433.043657 0.9640 0.9660 0.9660 0.9660 0.9670
437.391486 0.9670 0.9680 0.9680 0.9680 0.9680
441.739314 0.9700 0.9710 0.9720 0.9740 0.9750
446.087143 0.9760 0.9780 0.9790 0.9800 0.9830
450.434972 0.9900 0.9910 0.9910 0.9910 0.9910
454.782800 0.9910 0.9930 0.9930 0.9930 0.9940
459.130629 0.9950 1.0010 1.0020 1.0040 1.0050
463.478458 1.0080 1.0090 1.0100 1.0100 1.0120
467.826286 1.0120 1.0130 1.0140 1.0160 1.0160
472.174115 1.0160 1.0170 1.0170 1.0170 1.0170
476.521943 1.0170 1.0170 1.0160 1.0140 1.0140
480.869772 1.0130 1.0090 1.0080 1.0050 1.0040
485.217601 1.0040 1.0010 1.0000 0.9970 0.9930
489.565429 0.9860 0.9780 0.9720 0.9670 0.9630
493.913258 0.9550 0.9470 0.9360 0.9230 0.9110
498.261086 0.9000 0.8890 0.8790 0.8730 0.8680
502.608915 0.8580 0.8450 0.8260 0.8010 0.7711
506.956744 0.7351 0.6882 0.6193 0.5633 0.5063
511.304572 0.4450 0.3810 0.3170 0.2561 0.2510
515.652401 0.2560 0.3009 0.3508 0.3988 0.4936
520.000230 0.5270 0.6290 0.7359 0.7809 0.8229
524.348058 0.8599 0.8799 0.8949 0.9079 0.9189
528.695887 0.9340 0.9510 0.9570 0.9600 0.9680
533.043715 0.9780 0.9890 1.0059 1.0100 1.0130
537.391544 1.0160 1.0170 1.0190 1.0230 1.0250
541.739373 1.0280 1.0310 1.0320 1.0330 1.0330
546.087201 1.0350 1.0360 1.0390 1.0400 1.0440
550.435030 1.0440 1.0460 1.0460 1.0460 1.0460
554.782859 1.0460 1.0460 1.0460 1.0460 1.0460
559.130687 1.0460 1.0460 1.0460 1.0440 1.0440
563.478516 1.0440 1.0440 1.0440 1.0430 1.0430
567.826344 1.0430 1.0430 1.0430 1.0430 1.0440
572.174173 1.0440 1.0440 1.0460 1.0470 1.0470
576.522002 1.0480 1.0500 1.0540 1.0580 1.0590
580.869830 1.0620 1.0630 1.0650 1.0670 1.0670
585.217659 1.0700 1.0700 1.0720 1.0720 1.0720
589.565487 1.0720 1.0720 1.0700 1.0690 1.0660
593.913316 1.0650 1.0620 1.0610 1.0590 1.0580
598.261145 1.0570 1.0550 1.0540 1.0540 1.0540
602.608973 1.0550 1.0570 1.0580 1.0610 1.0620
606.956802 1.0630 1.0650 1.0660 1.0670 1.0670
611.304631 1.0700 1.0720 1.0720 1.0730 1.0730
615.652459 1.0720 1.0720 1.0700 1.0690 1.0690
620.000288 1.0670 1.0660 1.0660 1.0660 1.0650
624.348116 1.0630 1.0590 1.0580 1.0540 1.0520
628.695945 1.0500 1.0470 1.0460 1.0460 1.0440
633.043774 1.0420 1.0400 1.0390 1.0380 1.0350
637.391602 1.0330 1.0320 1.0290 1.0270 1.0210
641.739431 1.0170 1.0140 1.0120 1.0090 1.0090
646.087259 1.0060 1.0060 1.0050 1.0020 1.0000
650.435088 1.0000 0.9980 0.9970 1.0000 1.0020
654.782917 1.0050 1.0090 1.0130 1.0170 1.0190
659.130745 1.0200 1.0210 1.0230 1.0230 1.0240
663.478574 1.0250 1.0250 1.0250 1.0250 1.0270
667.826403 1.0270 1.0270 1.0280 1.0280 1.0280
672.174231 1.0280 1.0290 1.0290 1.0290 1.0310
676.522060 1.0310 1.0310 1.0320 1.0320 1.0320
680.869888 1.0320 1.0320 1.0320 1.0320 1.0320
685.217717 1.0320 1.0320 1.0320 1.0320 1.0320
689.565546 1.0320 1.0320 1.0320 1.0320 1.0320
693.913374 1.0320 1.0320 1.0320 1.0320 1.0320
698.261203 1.0320 1.0320 1.0320 1.0320 1.0320
702.609031 1.0320 1.0320 1.0320 1.0310 1.0310
706.956860 1.0310 1.0310 1.0290 1.0290 1.0290
711.304689 1.0290 1.0290 1.0280 1.0280 1.0280
715.652517 1.0280 1.0280 1.0280 1.0280 1.0290
720.000346 1.0310 1.0310 1.0310 1.0310 1.0310
724.348175 1.0310 1.0310 1.0310 1.0310 1.0310
728.696003 1.0320 1.0330 1.0330 1.0330 1.0330
733.043832 1.0330 1.0330 1.0330 1.0330 1.0330
737.391660 1.0330 1.0330 1.0350 1.0350 1.0330
741.739489 1.0330 1.0330 1.0330 1.0330 1.0330
746.087318 1.0330 1.0330 1.0330 1.0350 1.0350
750.435146 1.0350 1.0350 1.0350 1.0350 1.0330
754.782975 1.0330 1.0330 1.0330 1.0330 1.0330
759.130803 1.0320 1.0320 1.0320 1.0320 1.0310
763.478632 1.0310 1.0310 1.0310 1.0310 1.0310
767.826461 1.0290 1.0290 1.0290 1.0280 1.0270
772.174289 1.0250 1.0250 1.0250 1.0250 1.0250
776.522118 1.0250 1.0250 1.0240 1.0230 1.0170
780.869947 1.0120 1.0100 1.0090 1.0080 1.0040
785.217775 1.0010 0.9980 0.9930 0.9890 0.9860
789.565604 0.9800 0.9670 0.9560 0.9440 0.9290
793.913432 0.9150 0.8990 0.8811 0.8651 0.8461
798.261261 0.8270 0.8110 0.7850 0.7550 0.7251
802.609090 0.7140 0.6861 0.6521 0.6291 0.6270
806.956918 0.6290 0.6530 0.6970 0.7410 0.7959
811.304747 0.8459 0.8600 0.8700 0.8810 0.8939
815.652576 0.8990 0.9000 0.9000 0.9000 0.9000
820.000404 0.9020 0.9060 0.9130 0.9230 0.9409
824.348233 0.9550 0.9670 0.9760 0.9850 0.9890
828.696061 0.9950 1.0020 1.0050 1.0080 1.0080
833.043890 1.0060 1.0040 1.0020 1.0020 1.0010
837.391719 1.0000 1.0000 0.9980 0.9950 0.9890
841.739547 0.9820 0.9760 0.9710 0.9640 0.9590
846.087376 0.9530 0.9450 0.9380 0.9290 0.9171
850.435204 0.9030 0.8910 0.8830 0.8750 0.8680
854.783033 0.8600 0.8540 0.8530 0.8530 0.8540
859.130862 0.8550 0.8570 0.8580 0.8600 0.8610
863.478690 0.8660 0.8680 0.8720 0.8770 0.8800
867.826519 0.8810 0.8880 0.8910 0.8960 0.9040
872.174348 0.9070 0.9100 0.9130 0.9140 0.9180
876.522176 0.9260 0.9300 0.9320 0.9370 0.9400
880.870005 0.9420 0.9450 0.9490 0.9550 0.9590
885.217833 0.9630 0.9680 0.9720 0.9790 0.9850
889.565662 0.9930 0.9950 0.9970 1.0010 1.0090
893.913491 1.0120 1.0160 1.0170 1.0200 1.0210
898.261319 1.0240 1.0240 1.0270 1.0270 1.0290
902.609148 1.0290 1.0290 1.0290 1.0290 1.0290
906.956976 1.0290 1.0290 1.0290 1.0290 1.0290
911.304805 1.0290 1.0290 1.0290 1.0310 1.0310
915.652634 1.0310 1.0310 1.0310 1.0310 1.0320
920.000462 1.0320 1.0320 1.0310 1.0310 1.0310
924.348291 1.0310 1.0310 1.0310 1.0310 1.0310
928.696120 1.0310 1.0310 1.0310 1.0310 1.0310
933.043948 1.0310 1.0310 1.0310 1.0310 1.0310
937.391777 1.0310 1.0320 1.0330 1.0330 1.0330
941.739605 1.0320 1.0320 1.0320 1.0310 1.0310
946.087434 1.0310 1.0320 1.0320 1.0320 1.0320
950.435263 1.0320 1.0320 1.0310 1.0310 1.0310
954.783091 1.0310 1.0310 1.0310 1.0310 1.0290
959.130920 1.0290 1.0290 1.0290 1.0310 1.0310
963.478748 1.0310 1.0310 1.0320 1.0320 1.0310
967.826577 1.0310 1.0310 1.0320 1.0320 1.0320
972.174406 1.0320 1.0320 1.0320 1.0320 1.0320
976.522234 1.0320 1.0320 1.0320 1.0320 1.0320
980.870063 1.0320 1.0320 1.0320 1.0310 1.0310
985.217892 1.0310 1.0310 1.0310 1.0310 1.0310
989.565720 1.0310 1.0320 1.0320 1.0320 1.0310
993.913549 1.0310 1.0310 1.0310 1.0310 1.0310
998.261377 1.0290 1.0290 1.0290 1.0290 1.0290
1002.609206 1.0280 1.0280 1.0280 1.0280 1.0270
1006.957035 1.0270 1.0270 1.0270 1.0270 1.0270
1011.304863 1.0250 1.0250 1.0240 1.0240 1.0230
1015.652692 1.0210 1.0210 1.0200 1.0170 1.0140
1020.000521 1.0120 1.0100 1.0090 1.0090 1.0080
1024.348349 1.0050 1.0040 1.0010 1.0000 0.9980
1028.696178 0.9980 0.9970 0.9970 1.0000 1.0010
1033.044006 1.0020 1.0020 1.0080 1.0100 1.0120
1037.391835 1.0130 1.0160 1.0160 1.0170 1.0170
1041.739664 1.0190 1.0190 1.0200 1.0200 1.0200
1046.087492 1.0190 1.0190 1.0190 1.0170 1.0170
1050.435321 1.0170 1.0170 1.0160 1.0160 1.0140
1054.783149 1.0140 1.0140 1.0160 1.0160 1.0140
1059.130978 1.0140 1.0140 1.0140 1.0160 1.0160
1063.478807 1.0190 1.0200 1.0200 1.0200 1.0190
1067.826635 1.0190 1.0190 1.0190 1.0190 1.0190
1072.174464 1.0190 1.0190 1.0190 1.0190 1.0190
1076.522293 1.0190 1.0190 1.0190 1.0190 1.0190
1080.870121 1.0190 1.0190 1.0190 1.0190 1.0190
1085.217950 1.0190 1.0190 1.0170 1.0160 1.0140
1089.565778 1.0120 1.0100 1.0090 1.0090 1.0080
1093.913607 1.0060 1.0060 1.0040 1.0040 1.0020
1098.261436 1.0010 1.0000 1.0000 1.0000 0.9980
1102.609264 0.9970 0.9950 0.9930 0.9900 0.9890
1106.957093 0.9860 0.9800 0.9790 0.9740 0.9670
1111.304921 0.9600 0.9560 0.9530 0.9470 0.9360
1115.652750 0.9230 0.9110 0.9030 0.8950 0.8811
1120.000579 0.8700 0.8570 0.8420 0.8360 0.8260
1124.348407 0.8080 0.7980 0.7860 0.7711 0.7541
1128.696236 0.7320 0.7020 0.6670 0.6221 0.5661
1133.044065 0.5211 0.4532 0.3982 0.3542 0.2594
1137.391893 0.1450 0.1180 0.0820 0.0460 0.0160
1141.739722 0.0050 0.0000 0.0000 0.0000 0.0000
1146.087550 0.0000 0.0000 0.0050 0.0100 0.1039
1150.435379 0.1798 0.2618 0.3447 0.4177 0.4748
1154.783208 0.5080 0.5780 0.6389 0.6710 0.6920
1159.131036 0.7209 0.7449 0.7659 0.7780 0.7919
1163.478865 0.8070 0.8200 0.8340 0.8430 0.8490
1167.826693 0.8540 0.8580 0.8680 0.8760 0.8850
1172.174522 0.8920 0.8980 0.9020 0.9060 0.9110
1176.522351 0.9140 0.9170 0.9170 0.9170 0.9180
1180.870179 0.9220 0.9260 0.9290 0.9330 0.9360
1185.218008 0.9380 0.9440 0.9440 0.9440 0.9440
1189.565837 0.9440 0.9420 0.9400 0.9380 0.9360
1193.913665 0.9340 0.9330 0.9320 0.9290 0.9270
1198.261494 0.9260 0.9250 0.9230 0.9250 0.9270
1202.609322 0.9290 0.9340 0.9360 0.9380 0.9400
1206.957151 0.9420 0.9440 0.9470 0.9480 0.9480
1211.304980 0.9480 0.9470 0.9450 0.9450 0.9450
1215.652808 0.9440 0.9420 0.9410 0.9400 0.9400
1220.000637 0.9360 0.9340 0.9330 0.9330 0.9270
1224.348465 0.9170 0.9130 0.9080 0.8990 0.8910
1228.696294 0.8800 0.8601 0.8351 0.8071 0.7741
1233.044123 0.7369 0.6950 0.6310 0.5770 0.5101
1237.391951 0.4900 0.4900 0.5498 0.6118 0.6817
1241.739780 0.7631 0.8640 0.9020 0.9400 0.9600
1246.087609 0.9720 0.9760 0.9780 0.9820 0.9890
1250.435437 0.9930 0.9970 1.0000 1.0020 1.0060
1254.783266 1.0080 1.0120 1.0130 1.0140 1.0140
1259.131094 1.0160 1.0170 1.0170 1.0170 1.0170
1263.478923 1.0170 1.0170 1.0170 1.0170 1.0170
1267.826752 1.0170 1.0170 1.0190 1.0190 1.0190
1272.174580 1.0190 1.0200 1.0200 1.0210 1.0230
1276.522409 1.0230 1.0230 1.0230 1.0230 1.0210
1280.870238 1.0210 1.0210 1.0210 1.0210 1.0200
1285.218066 1.0200 1.0190 1.0190 1.0190 1.0190
1289.565895 1.0190 1.0190 1.0190 1.0190 1.0190
1293.913723 1.0190 1.0190 1.0170 1.0170 1.0140
1298.261552 1.0140 1.0130 1.0120 1.0120 1.0100
1302.609381 1.0100 1.0090 1.0090 1.0090 1.0080
1306.957209 1.0080 1.0060 1.0060 1.0060 1.0080
1311.305038 1.0080 1.0080 1.0080 1.0080 1.0060
1315.652866 1.0050 1.0020 1.0010 1.0000 1.0000
1320.000695 0.9980 0.9970 0.9950 0.9950 0.9940
1324.348524 0.9940 0.9930 0.9910 0.9900 0.9890
1328.696352 0.9870 0.9860 0.9850 0.9830 0.9820
1333.044181 0.9820 0.9820 0.9800 0.9800 0.9790
1337.392010 0.9790 0.9790 0.9780 0.9760 0.9760
1341.739838 0.9720 0.9700 0.9670 0.9640 0.9610
1346.087667 0.9610 0.9600 0.9560 0.9550 0.9520
1350.435495 0.9480 0.9440 0.9370 0.9290 0.9220
1354.783324 0.9170 0.9100 0.9020 0.8950 0.8850
1359.131153 0.8750 0.8620 0.8351 0.7981 0.7851
1363.478981 0.7510 0.7239 0.6330 0.5760 0.5021
1367.826810 0.4701 0.4371 0.2645 0.0916 0.0472
1372.174638 0.0270 0.0270 0.0620 0.1100 0.2748
1376.522467 0.4556 0.5837 0.6488 0.7008 0.7578
1380.870296 0.7780 0.8130 0.8160 0.8410 0.8650
1385.218124 0.8770 0.8910 0.8990 0.9030 0.9040
1389.565953 0.9040 0.9040 0.9020 0.8960 0.8940
1393.913782 0.8910 0.8770 0.8690 0.8690 0.8810
1398.261610 0.9000 0.9130 0.9230 0.9270 0.9370
1402.609439 0.9400 0.9410 0.9420 0.9440 0.9440
1406.957267 0.9440 0.9420 0.9420 0.9410 0.9400
1411.305096 0.9370 0.9360 0.9340 0.9340 0.9330
1415.652925 0.9300 0.9250 0.9230 0.9190 0.9170
1420.000753 0.9040 0.8950 0.8890 0.8850 0.8840
1424.348582 0.8840 0.8850 0.8870 0.8880 0.8890
1428.696410 0.8910 0.8910 0.8890 0.8870 0.8830
1433.044239 0.8800 0.8760 0.8730 0.8700 0.8650
1437.392068 0.8550 0.8430 0.8340 0.8260 0.8170
1441.739896 0.8080 0.7980 0.7850 0.7700 0.7500
1446.087725 0.7240 0.6991 0.6611 0.5962 0.5283
1450.435554 0.4660 0.4110 0.3760 0.3620 0.3540
1454.783382 0.3510 0.3500 0.3510 0.3570 0.3799
1459.131211 0.4021 0.4820 0.5040 0.5400 0.5840
1463.479039 0.6309 0.6749 0.7089 0.7259 0.7559
1467.826868 0.7580 0.7580 0.7520 0.7430 0.7170
1472.174697 0.6821 0.6680 0.6161 0.5243 0.5011
1476.522525 0.5010 0.5200 0.5950 0.6669 0.7199
1480.870354 0.7669 0.7899 0.8089 0.8229 0.8379
1485.218183 0.8470 0.8530 0.8600 0.8610 0.8620
1489.566011 0.8650 0.8690 0.8720 0.8690 0.8680
1493.913840 0.8650 0.8610 0.8580 0.8570 0.8530
1498.261668 0.8490 0.8470 0.8460 0.8450 0.8410
1502.609497 0.8340 0.8300 0.8260 0.8200 0.8130
1506.957326 0.8070 0.8000 0.7980 0.7970 0.7940
1511.305154 0.7900 0.7820 0.7790 0.7770 0.7710
1515.652983 0.7670 0.7640 0.7600 0.7540 0.7480
1520.000811 0.7430 0.7390 0.7330 0.7260 0.7240
1524.348640 0.7210 0.7160 0.7090 0.7070 0.7050
1528.696469 0.6990 0.6920 0.6840 0.6760 0.6680
1533.044297 0.6610 0.6520 0.6410 0.6290 0.6180
1537.392126 0.6050 0.6000 0.5920 0.5780 0.5550
1541.739955 0.5310 0.5270 0.5230 0.5140 0.5090
1546.087783 0.5010 0.4950 0.4910 0.4870 0.4860
1550.435612 0.4860 0.4870 0.4890 0.4900 0.4910
1554.783440 0.4950 0.5000 0.5060 0.5100 0.5190
1559.131269 0.5619 0.5760 0.5770 0.5770 0.5760
1563.479098 0.5760 0.5820 0.5880 0.6000 0.6160
1567.826926 0.6300 0.6330 0.6480 0.6610 0.6690
1572.174755 0.6750 0.6760 0.6770 0.6790 0.6800
1576.522583 0.6820 0.6880 0.6950 0.6970 0.6970
1580.870412 0.6980 0.6980 0.6980 0.6980 0.6990
1585.218241 0.7050 0.7070 0.7100 0.7140 0.7180
1589.566069 0.7260 0.7320 0.7410 0.7500 0.7560
1593.913898 0.7620 0.7730 0.7830 0.7930 0.8020
1598.261727 0.8130 0.8220 0.8310 0.8410 0.8490
1602.609555 0.8580 0.8660 0.8730 0.8810 0.8880
1606.957384 0.8950 0.9030 0.9100 0.9150 0.9260
1611.305212 0.9340 0.9360 0.9410 0.9440 0.9450
1615.653041 0.9470 0.9530 0.9570 0.9610 0.9630
1620.000870 0.9640 0.9640 0.9670 0.9710 0.9710
1624.348698 0.9720 0.9720 0.9740 0.9750 0.9760
1628.696527 0.9780 0.9790 0.9800 0.9820 0.9830
1633.044355 0.9850 0.9860 0.9860 0.9870 0.9870
1637.392184 0.9890 0.9890 0.9900 0.9900 0.9910
1641.740013 0.9910 0.9930 0.9930 0.9940 0.9940
1646.087841 0.9950 0.9950 0.9970 0.9970 0.9970
1650.435670 0.9970 0.9970 0.9970 0.9970 0.9950
1654.783499 0.9940 0.9930 0.9930 0.9930 0.9910
1659.131327 0.9910 0.9900 0.9890 0.9890 0.9890
1663.479156 0.9890 0.9890 0.9890 0.9890 0.9890
1667.826984 0.9890 0.9890 0.9890 0.9890 0.9890
1672.174813 0.9890 0.9890 0.9890 0.9890 0.9890
1676.522642 0.9890 0.9900 0.9910 0.9910 0.9910
1680.870470 0.9910 0.9910 0.9910 0.9910 0.9910
1685.218299 0.9910 0.9930 0.9930 0.9930 0.9930
1689.566127 0.9930 0.9930 0.9930 0.9930 0.9930
1693.913956 0.9940 0.9940 0.9950 0.9950 0.9950
1698.261785 0.9970 0.9970 0.9970 0.9970 0.9970
1702.609613 0.9970 0.9970 0.9970 0.9950 0.9940
1706.957442 0.9940 0.9930 0.9930 0.9910 0.9910
1711.305271 0.9910 0.9910 0.9910 0.9910 0.9910
1715.653099 0.9930 0.9930 0.9930 0.9930 0.9910
1720.000928 0.9910 0.9910 0.9900 0.9900 0.9900
1724.348756 0.9890 0.9870 0.9870 0.9860 0.9860
1728.696585 0.9850 0.9850 0.9850 0.9830 0.9830
1733.044414 0.9830 0.9830 0.9830 0.9830 0.9850
1737.392242 0.9850 0.9850 0.9860 0.9860 0.9870
1741.740071 0.9870 0.9890 0.9890 0.9900 0.9900
1746.087900 0.9910 0.9910 0.9910 0.9930 0.9930
1750.435728 0.9930 0.9930 0.9930 0.9930 0.9910
1754.783557 0.9900 0.9900 0.9900 0.9900 0.9900
1759.131385 0.9910 0.9910 0.9930 0.9930 0.9940
1763.479214 0.9940 0.9950 0.9950 0.9970 0.9970
1767.827043 0.9970 0.9970 1.0000 1.0000 1.0010
1772.174871 1.0010 1.0010 1.0010 1.0010 1.0000
1776.522700 1.0000 1.0000 1.0000 0.9980 0.9980
1780.870528 0.9970 0.9970 0.9970 0.9950 0.9950
1785.218357 0.9940 0.9940 0.9940 0.9940 0.9940
1789.566186 0.9940 0.9930 0.9930 0.9930 0.9930
1793.914014 0.9940 0.9940 0.9940 0.9940 0.9950
1798.261843 0.9950 0.9950 0.9970 0.9970 0.9970
1802.609672 0.9980 0.9980 0.9980 0.9980 0.9980
1806.957500 0.9980 0.9980 0.9980 0.9980 0.9980
1811.305329 0.9980 0.9980 0.9980 0.9980 0.9970
1815.653157 0.9970 0.9970 0.9970 0.9950 0.9950
1820.000986 0.9950 0.9950 0.9940 0.9940 0.9940
1824.348815 0.9940 0.9930 0.9930 0.9930 0.9930
1828.696643 0.9930 0.9930 0.9930 0.9930 0.9930
1833.044472 0.9940 0.9940 0.9930 0.9930 0.9930
1837.392300 0.9910 0.9910 0.9900 0.9900 0.9890
1841.740129 0.9890 0.9890 0.9890 0.9870 0.9870
1846.087958 0.9870 0.9860 0.9860 0.9860 0.9850
1850.435786 0.9850 0.9850 0.9850 0.9830 0.9830
1854.783615 0.9830 0.9820 0.9820 0.9820 0.9820
1859.131444 0.9830 0.9830 0.9850 0.9850 0.9860
1863.479272 0.9860 0.9870 0.9890 0.9890 0.9890
1867.827101 0.9890 0.9900 0.9910 0.9910 0.9930
1872.174929 0.9940 0.9940 0.9940 0.9940 0.9950
1876.522758 0.9950 0.9950 0.9950 0.9950 0.9950
1880.870587 0.9950 0.9950 0.9950 0.9950 0.9950
1885.218415 0.9950 0.9950 0.9950 0.9950 0.9950
1889.566244 0.9950 0.9970 0.9970 0.9970 0.9980
1893.914072 0.9980 1.0000 1.0000 1.0000 1.0000
1898.261901 0.9980 0.9980 0.9980 0.9980 0.9980
1902.609730 0.9970 0.9970 0.9950 0.9950 0.9940
1906.957558 0.9940 0.9940 0.9940 0.9940 0.9940
1911.305387 0.9950 0.9950 0.9950 0.9970 0.9970
1915.653216 0.9970 0.9970 0.9970 0.9970 0.9980
1920.001044 1.0000 1.0000 1.0010 1.0010 1.0020
1924.348873 1.0020 1.0020 1.0020 1.0020 1.0020
1928.696701 1.0020 1.0020 1.0020 1.0010 1.0010
1933.044530 1.0010 1.0010 1.0010 1.0010 1.0000
1937.392359 1.0000 1.0000 1.0000 1.0000 1.0000
1941.740187 1.0000 1.0000 1.0000 1.0000 1.0000
1946.088016 1.0000 1.0000 1.0010 1.0010 1.0010
1950.435845 1.0010 1.0010 1.0010 1.0010 1.0010
1954.783673 1.0020 1.0020 1.0020 1.0020 1.0020
1959.131502 1.0020 1.0020 1.0020 1.0020 1.0020
1963.479330 1.0010 1.0010 1.0000 1.0000 1.0000
1967.827159 0.9980 0.9980 0.9980 0.9980 0.9980
1972.174988 0.9980 0.9980 0.9980 0.9980 0.9980
1976.522816 0.9980 0.9980 0.9980 0.9980 0.9980
1980.870645 0.9980 0.9980 0.9980 0.9980 0.9980
1985.218473 0.9980 0.9980 1.0000 1.0000 1.0000
1989.566302 1.0000 1.0000 1.0000 1.0000 1.0000
1993.914131 1.0000 1.0000 1.0000 1.0000 1.0000
1998.261959 1.0000 1.0000 1.0000 1.0005 1.0010
2002.609788 1.0010 1.0010 1.0010 1.0010 1.0010
2006.957617 1.0010 1.0010 1.0010 1.0015 1.0020
2011.305445 1.0020 1.0020 1.0020 1.0020 1.0020
2015.653274 1.0020 1.0030 1.0040 1.0040 1.0040
2020.001102 1.0040 1.0040 1.0040 1.0040 1.0045
2024.348931 1.0050 1.0050 1.0050 1.0050 1.0050
2028.696760 1.0055 1.0060 1.0060 1.0060 1.0060
2033.044588 1.0060 1.0070 1.0080 1.0080 1.0080
2037.392417 1.0080 1.0080 1.0080 1.0080 1.0085
2041.740245 1.0090 1.0090 1.0090 1.0090 1.0090
2046.088074 1.0090 1.0090 1.0090 1.0090 1.0090
2050.435903 1.0090 1.0090 1.0090 1.0090 1.0090
2054.783731 1.0090 1.0090 1.0090 1.0090 1.0090
2059.131560 1.0090 1.0095 1.0100 1.0100 1.0100
2063.479389 1.0100 1.0100 1.0100 1.0100 1.0100
2067.827217 1.0100 1.0100 1.0100 1.0100 1.0100
2072.175046 1.0100 1.0100 1.0100 1.0100 1.0100
2076.522874 1.0100 1.0100 1.0100 1.0100 1.0100
2080.870703 1.0100 1.0100 1.0100 1.0100 1.0100
2085.218532 1.0100 1.0100 1.0100 1.0100 1.0100
2089.566360 1.0100 1.0100 1.0100 1.0100 1.0100
2093.914189 1.0100 1.0100 1.0100 1.0100 1.0100
2098.262017 1.0100 1.0100 1.0100 1.0100 1.0100
2102.609846 1.0100 1.0100 1.0100 1.0100 1.0100
2106.957675 1.0100 1.0100 1.0100 1.0100 1.0100
2111.305503 1.0100 1.0100 1.0100 1.0100 1.0100
2115.653332 1.0100 1.0100 1.0100 1.0100 1.0100
2120.001161 1.0100 1.0100 1.0100 1.0100 1.0100
2124.348989 1.0100 1.0099 1.0094 1.0090 1.0090
2128.696818 1.0090 1.0090 1.0090 1.0090 1.0090
2133.044646 1.0090 1.0090 1.0090 1.0089 1.0084
2137.392475 1.0080 1.0080 1.0078 1.0068 1.0060
2141.740304 1.0060 1.0059 1.0054 1.0050 1.0050
2146.088132 1.0049 1.0044 1.0040 1.0040 1.0038
2150.435961 1.0028 1.0019 1.0014 1.0010 1.0010
2154.783789 1.0009 1.0004 1.0000 1.0000 0.9998
2159.131618 0.9988 0.9979 0.9974 0.9968 0.9958
2163.479447 0.9949 0.9944 0.9939 0.9934 0.9928
2167.827275 0.9918 0.9909 0.9904 0.9899 0.9894
2172.175104 0.9888 0.9878 0.9870 0.9870 0.9873
2176.522933 0.9883 0.9891 0.9896 0.9901 0.9906
2180.870761 0.9913 0.9923 0.9931 0.9936 0.9941
2185.218590 0.9946 0.9953 0.9963 0.9974 0.9989
2189.566418 1.0000 1.0000 1.0001 1.0006 1.0010
2193.914247 1.0010 1.0011 1.0016 1.0020 1.0020
2198.262076 1.0020 1.0020 1.0023 1.0033 1.0041
2202.609904 1.0046 1.0050 1.0050 1.0051 1.0056
2206.957733 1.0060 1.0060 1.0060 1.0060 1.0060
2211.305562 1.0060 1.0060 1.0060 1.0060 1.0060
2215.653390 1.0060 1.0060 1.0060 1.0060 1.0060
2220.001219 1.0060 1.0060 1.0060 1.0060 1.0060
2224.349047 1.0060 1.0060 1.0060 1.0060 1.0060
2228.696876 1.0060 1.0060 1.0060 1.0058 1.0053
2233.044705 1.0050 1.0050 1.0050 1.0050 1.0050
2237.392533 1.0050 1.0050 1.0050 1.0050 1.0050
2241.740362 1.0050 1.0050 1.0048 1.0043 1.0040
2246.088190 1.0040 1.0040 1.0040 1.0036 1.0027
2250.436019 1.0020 1.0020 1.0020 1.0020 1.0018
2254.783848 1.0013 1.0010 1.0010 1.0010 1.0010
2259.131676 1.0008 1.0003 1.0000 1.0000 0.9996
2263.479505 0.9986 0.9980 0.9980 0.9978 0.9973
2267.827334 0.9966 0.9956 0.9946 0.9936 0.9926
2272.175162 0.9916 0.9908 0.9903 0.9898 0.9893
2276.522991 0.9886 0.9876 0.9870 0.9870 0.9866
2280.870819 0.9856 0.9844 0.9829 0.9808 0.9778
2285.218648 0.9758 0.9753 0.9744 0.9729 0.9718
2289.566477 0.9713 0.9704 0.9689 0.9678 0.9673
2293.914305 0.9668 0.9663 0.9656 0.9646 0.9640
2298.262134 0.9640 0.9644 0.9654 0.9662 0.9667
2302.609962 0.9672 0.9677 0.9684 0.9694 0.9702
2306.957791 0.9707 0.9712 0.9717 0.9726 0.9741
2311.305620 0.9756 0.9772 0.9784 0.9794 0.9807
2315.653448 0.9822 0.9839 0.9859 0.9879 0.9899
2320.001277 0.9930 0.9975 1.0009 1.0029 1.0049
2324.349106 1.0069 1.0089 1.0109 1.0125 1.0135
2328.696934 1.0154 1.0184 1.0207 1.0222 1.0232
2333.044763 1.0237 1.0240 1.0240 1.0242 1.0247
2337.392591 1.0250 1.0250 1.0250 1.0250 1.0248
2341.740420 1.0243 1.0233 1.0218 1.0208 1.0203
2346.088249 1.0198 1.0193 1.0183 1.0168 1.0143
2350.436077 1.0108 1.0080 1.0060 1.0048 1.0043
2354.783906 1.0033 1.0017 1.0010 1.0010 1.0008
2359.131734 1.0003 1.0000 1.0000 1.0000 1.0000
2363.479563 1.0000 1.0000 1.0000 1.0000 0.9995
2367.827392 0.9985 0.9980 0.9980 0.9977 0.9972
2372.175220 0.9970 0.9970 0.9965 0.9955 0.9950
2376.523049 0.9950 0.9947 0.9942 0.9940 0.9940
2380.870878 0.9937 0.9932 0.9930 0.9930 0.9925
2385.218706 0.9915 0.9910 0.9910 0.9905 0.9895
2389.566535 0.9890 0.9890 0.9882 0.9867 0.9860
2393.914363 0.9860 0.9857 0.9852 0.9844 0.9834
2398.262192 0.9827 0.9822 0.9820 0.9820 0.9823
2402.610021 0.9828 0.9839 0.9854 0.9863 0.9868
2406.957849 0.9881 0.9901 0.9916 0.9926 0.9933
2411.305678 0.9938 0.9943 0.9948 0.9950 0.9950
2415.653507 0.9956 0.9966 0.9979 0.9994 1.0000
2420.001335 1.0000 1.0003 1.0008 1.0013 1.0018
2424.349164 1.0020 1.0020 1.0020 1.0020 1.0026
2428.696992 1.0036 1.0040 1.0040 1.0040 1.0040
2433.044821 1.0043 1.0048 1.0050 1.0050 1.0050
2437.392650 1.0050 1.0050 1.0050 1.0053 1.0058
2441.740478 1.0060 1.0060 1.0060 1.0060 1.0060
2446.088307 1.0060 1.0060 1.0060 1.0060 1.0060
2450.436135 1.0060 1.0060 1.0057 1.0052 1.0050
2454.783964 1.0050 1.0047 1.0042 1.0040 1.0040
2459.131793 1.0040 1.0040 1.0040 1.0040 1.0034
2463.479621 1.0024 1.0020 1.0020 1.0020 1.0020
2467.827450 1.0020 1.0020 1.0027 1.0037 1.0040
2472.175279 1.0040 1.0040 1.0040 1.0040 1.0040
2476.523107 1.0043 1.0048 1.0050 1.0050 1.0050
2480.870936 1.0050 1.0050 1.0050 1.0050 1.0050
2485.218764 1.0050 1.0050 1.0050 1.0050 1.0054
2489.566593 1.0059 1.0060 1.0060 1.0060 1.0060
2493.914422 1.0060 1.0060 1.0060 1.0060 1.0060
2498.262250 1.0060 1.0060 1.0060 1.0060 1.0060
2502.610079 1.0060 1.0060 1.0060 1.0060 1.0060
2506.957907 1.0060 1.0060 1.0060 1.0060 1.0060
2511.305736 1.0060 1.0060 1.0060 1.0060 1.0060
2515.653565 1.0060 1.0060 1.0060 1.0060 1.0060
2520.001393 1.0060 1.0060 1.0060 1.0060 1.0060
2524.349222 1.0060 1.0060 1.0060 1.0060 1.0060
2528.697051 1.0056 1.0051 1.0050 1.0050 1.0050
2533.044879 1.0050 1.0050 1.0050 1.0050 1.0050
2537.392708 1.0050 1.0050 1.0050 1.0050 1.0046
2541.740536 1.0041 1.0040 1.0040 1.0040 1.0040
2546.088365 1.0040 1.0040 1.0040 1.0040 1.0040
2550.436194 1.0040 1.0032 1.0022 1.0020 1.0020
2554.784022 1.0020 1.0020 1.0020 1.0020 1.0020
2559.131851 1.0020 1.0020 1.0020 1.0020 1.0020
2563.479679 1.0016 1.0011 1.0010 1.0010 1.0010
2567.827508 1.0010 1.0010 1.0010 1.0010 1.0010
2572.175337 1.0010 1.0010 1.0006 1.0001 1.0000
2576.523165 1.0000 1.0000 1.0000 0.9992 0.9982
2580.870994 0.9980 0.9980 0.9980 0.9980 0.9976
2585.218823 0.9971 0.9970 0.9970 0.9970 0.9970
2589.566651 0.9962 0.9952 0.9946 0.9941 0.9940
2593.914480 0.9940 0.9936 0.9931 0.9922 0.9912
2598.262308 0.9910 0.9910 0.9906 0.9901 0.9900
2602.610137 0.9900 0.9904 0.9909 0.9918 0.9928
2606.957966 0.9934 0.9939 0.9944 0.9949 0.9950
2611.305794 0.9950 0.9950 0.9950 0.9959 0.9969
2615.653623 0.9970 0.9970 0.9957 0.9942 0.9936
2620.001451 0.9931 0.9917 0.9902 0.9883 0.9863
2624.349280 0.9842 0.9822 0.9807 0.9792 0.9790
2628.697109 0.9790 0.9794 0.9799 0.9813 0.9828
2633.044937 0.9857 0.9887 0.9908 0.9928 0.9934
2637.392766 0.9939 0.9944 0.9950 0.9959 0.9969
2641.740595 0.9970 0.9970 0.9970 0.9970 0.9970
2646.088423 0.9970 0.9961 0.9951 0.9950 0.9950
2650.436252 0.9950 0.9950 0.9950 0.9950 0.9945
2654.784080 0.9940 0.9940 0.9940 0.9935 0.9930
2659.131909 0.9930 0.9930 0.9921 0.9911 0.9910
2663.479738 0.9910 0.9905 0.9900 0.9900 0.9900
2667.827566 0.9895 0.9890 0.9890 0.9890 0.9881
2672.175395 0.9871 0.9870 0.9870 0.9870 0.9870
2676.523224 0.9865 0.9860 0.9845 0.9830 0.9825
2680.871052 0.9820 0.9820 0.9820 0.9810 0.9800
2685.218881 0.9800 0.9800 0.9800 0.9800 0.9810
2689.566709 0.9820 0.9820 0.9820 0.9835 0.9850
2693.914538 0.9860 0.9870 0.9870 0.9870 0.9885
2698.262367 0.9900 0.9900 0.9900 0.9900 0.9900
2702.610195 0.9895 0.9890 0.9890 0.9890 0.9880
2706.958024 0.9870 0.9870 0.9870 0.9865 0.9860
2711.305852 0.9855 0.9850 0.9850 0.9850 0.9840
2715.653681 0.9830 0.9830 0.9829 0.9789 0.9749
2720.001510 0.9689 0.9628 0.9523 0.9418 0.9333
2724.349338 0.9250 0.9240 0.9230 0.9250 0.9272
2728.697167 0.9337 0.9402 0.9442 0.9487 0.9658
2733.044996 0.9820 0.9825 0.9830 0.9840 0.9851
2737.392824 0.9871 0.9890 0.9895 0.9900 0.9900
2741.740653 0.9899 0.9884 0.9870 0.9860 0.9850
2746.088481 0.9850 0.9849 0.9839 0.9830 0.9830
2750.436310 0.9831 0.9841 0.9851 0.9861 0.9871
2754.784139 0.9881 0.9890 0.9895 0.9900 0.9900
2759.131967 0.9900 0.9905 0.9910 0.9910 0.9910
2763.479796 0.9905 0.9900 0.9900 0.9900 0.9895
2767.827624 0.9890 0.9890 0.9889 0.9879 0.9867
2772.175453 0.9832 0.9798 0.9778 0.9758 0.9733
2776.523282 0.9707 0.9672 0.9636 0.9591 0.9550
2780.871110 0.9550 0.9554 0.9584 0.9614 0.9649
2785.218939 0.9685 0.9725 0.9761 0.9771 0.9781
2789.566768 0.9786 0.9790 0.9790 0.9788 0.9773
2793.914596 0.9759 0.9754 0.9748 0.9733 0.9720
2798.262425 0.9720 0.9719 0.9714 0.9707 0.9687
2802.610253 0.9667 0.9647 0.9629 0.9619 0.9609
2806.958082 0.9604 0.9599 0.9594 0.9588 0.9573
2811.305911 0.9559 0.9554 0.9547 0.9527 0.9500
2815.653739 0.9429 0.9370 0.9370 0.9363 0.9323
2820.001568 0.9287 0.9272 0.9260 0.9260 0.9263
2824.349396 0.9278 0.9293 0.9308 0.9320 0.9320
2828.697225 0.9322 0.9332 0.9340 0.9340 0.9338
2833.045054 0.9328 0.9315 0.9290 0.9269 0.9264
2837.392882 0.9253 0.9218 0.9175 0.9100 0.9024
2841.740711 0.8944 0.8861 0.8766 0.8671 0.8576
2846.088540 0.8481 0.8386 0.8295 0.8220 0.8148
2850.436368 0.8087 0.8011 0.7876 0.7743 0.7618
2854.784197 0.7477 0.7282 0.7105 0.6990 0.6898
2859.132025 0.6888 0.6882 0.6892 0.6902 0.6912
2863.479854 0.6930 0.6975 0.7011 0.7016 0.7020
2867.827683 0.7020 0.7019 0.7014 0.7005 0.6985
2872.175511 0.6953 0.6883 0.6808 0.6718 0.6627
2876.523340 0.6532 0.6428 0.6298 0.6169 0.6044
2880.871169 0.5923 0.5813 0.5704 0.5599 0.5500
2885.218997 0.5419 0.5343 0.5278 0.5213 0.5148
2889.566826 0.5079 0.4999 0.4936 0.4921 0.4907
2893.914654 0.4897 0.4871 0.4801 0.4728 0.4648
2898.262483 0.4586 0.4571 0.4564 0.4579 0.4674
2902.610312 0.4982 0.5210 0.5245 0.5276 0.5296
2906.958140 0.5307 0.5297 0.5275 0.5225 0.5159
2911.305969 0.5054 0.4918 0.4708 0.4498 0.4288
2915.653797 0.4069 0.3829 0.3623 0.3498 0.3373
2920.001626 0.3246 0.3136 0.3061 0.2959 0.2799
2924.349455 0.2690 0.2690 0.2805 0.3165 0.3613
2928.697283 0.4248 0.4883 0.5518 0.5956 0.5976
2933.045112 0.5985 0.5970 0.5949 0.5914 0.5792
2937.392941 0.5489 0.5235 0.5075 0.4913 0.4748
2941.740769 0.4587 0.4432 0.4277 0.4122 0.4020
2946.088598 0.4020 0.4437 0.5647 0.6456 0.6501
2950.436426 0.6530 0.6530 0.6521 0.6496 0.6394
2954.784255 0.6147 0.5880 0.5580 0.5188 0.4638
2959.132084 0.4215 0.4010 0.3805 0.3599 0.3398
2963.479912 0.3203 0.3004 0.2799 0.2598 0.2403
2967.827741 0.2204 0.1999 0.1870 0.1870 0.1941
2972.175569 0.2133 0.2324 0.2514 0.2704 0.2894
2976.523398 0.3012 0.3017 0.3016 0.3006 0.2831
2980.871227 0.2401 0.2085 0.1945 0.1805 0.1665
2985.219055 0.1552 0.1482 0.1420 0.1370 0.1340
2989.566884 0.1340 0.1411 0.1581 0.1751 0.1921
2993.914713 0.2202 0.2637 0.2999 0.3259 0.3517
2998.262541 0.3772 0.3991 0.4161 0.4632 0.5517
3002.610370 0.6276 0.6861 0.7322 0.7612 0.7823
3006.958198 0.7924 0.8046 0.8196 0.8337 0.8467
3011.306027 0.8589 0.8699 0.8802 0.8897 0.8990
3015.653856 0.9080 0.9159 0.9224 0.9284 0.9339
3020.001684 0.9392 0.9442 0.9488 0.9528 0.9561
3024.349513 0.9587 0.9614 0.9644 0.9672 0.9697
3028.697341 0.9717 0.9732 0.9749 0.9769 0.9785
3033.045170 0.9795 0.9805 0.9815 0.9827 0.9842
3037.392999 0.9855 0.9865 0.9875 0.9885 0.9892
3041.740827 0.9897 0.9902 0.9907 0.9915 0.9925
3046.088656 0.9932 0.9937 0.9942 0.9947 0.9955
3050.436485 0.9965 0.9970 0.9970 0.9970 0.9970
3054.784313 0.9972 0.9977 0.9985 0.9995 1.0000
3059.132142 1.0000 1.0003 1.0008 1.0010 1.0010
3063.479970 1.0013 1.0018 1.0020 1.0020 1.0020
3067.827799 1.0020 1.0020 1.0020 1.0025 1.0035
3072.175628 1.0040 1.0040 1.0040 1.0040 1.0040
3076.523456 1.0040 1.0040 1.0040 1.0040 1.0040
3080.871285 1.0040 1.0040 1.0040 1.0040 1.0040
3085.219113 1.0040 1.0040 1.0040 1.0040 1.0040
3089.566942 1.0040 1.0040 1.0043 1.0048 1.0050
3093.914771 1.0050 1.0050 1.0050 1.0053 1.0058
3098.262599 1.0060 1.0060 1.0060 1.0060 1.0066
3102.610428 1.0076 1.0080 1.0080 1.0080 1.0080
3106.958257 1.0080 1.0080 1.0080 1.0080 1.0080
3111.306085 1.0080 1.0080 1.0080 1.0080 1.0080
3115.653914 1.0080 1.0080 1.0080 1.0080 1.0080
3120.001742 1.0080 1.0080 1.0080 1.0080 1.0080
3124.349571 1.0080 1.0080 1.0080 1.0080 1.0080
3128.697400 1.0080 1.0074 1.0064 1.0060 1.0060
3133.045228 1.0060 1.0060 1.0060 1.0060 1.0060
3137.393057 1.0060 1.0060 1.0060 1.0060 1.0060
3141.740886 1.0057 1.0052 1.0050 1.0050 1.0050
3146.088714 1.0050 1.0050 1.0050 1.0050 1.0050
3150.436543 1.0050 1.0050 1.0050 1.0050 1.0047
3154.784371 1.0042 1.0040 1.0040 1.0040 1.0040
3159.132200 1.0040 1.0040 1.0034 1.0024 1.0020
3163.480029 1.0020 1.0020 1.0020 1.0020 1.0020
3167.827857 1.0017 1.0012 1.0010 1.0010 1.0010
3172.175686 1.0010 1.0010 1.0010 1.0010 1.0010
3176.523514 1.0007 1.0002 1.0000 1.0000 0.9993
3180.871343 0.9983 0.9977 0.9972 0.9970 0.9970
3185.219172 0.9963 0.9953 0.9943 0.9933 0.9930
3189.567000 0.9930 0.9923 0.9913 0.9907 0.9902
3193.914829 0.9900 0.9900 0.9900 0.9900 0.9900
3198.262658 0.9900 0.9896 0.9891 0.9890 0.9890
3202.610486 0.9890 0.9890 0.9890 0.9890 0.9883
3206.958315 0.9873 0.9870 0.9870 0.9870 0.9870
3211.306143 0.9870 0.9870 0.9870 0.9870 0.9870
3215.653972 0.9870 0.9870 0.9870 0.9870 0.9870
3220.001801 0.9870 0.9870 0.9870 0.9870 0.9870
3224.349629 0.9870 0.9870 0.9870 0.9870 0.9870
3228.697458 0.9870 0.9870 0.9866 0.9861 0.9860
3233.045286 0.9860 0.9856 0.9851 0.9842 0.9832
3237.393115 0.9830 0.9830 0.9830 0.9830 0.9830
3241.740944 0.9830 0.9838 0.9848 0.9850 0.9850
3246.088772 0.9854 0.9859 0.9860 0.9860 0.9856
3250.436601 0.9851 0.9850 0.9850 0.9850 0.9850
3254.784430 0.9854 0.9859 0.9860 0.9860 0.9864
3259.132258 0.9869 0.9870 0.9870 0.9878 0.9888
3263.480087 0.9890 0.9890 0.9898 0.9908 0.9918
3267.827915 0.9928 0.9930 0.9930 0.9934 0.9939
3272.175744 0.9944 0.9949 0.9958 0.9968 0.9974
3276.523573 0.9979 0.9988 0.9998 1.0004 1.0009
3280.871401 1.0010 1.0010 1.0014 1.0019 1.0020
3285.219230 1.0020 1.0028 1.0038 1.0040 1.0040
3289.567058 1.0044 1.0049 1.0050 1.0050 1.0054
3293.914887 1.0059 1.0060 1.0060 1.0068 1.0078
3298.262716 1.0080 1.0080 1.0080 1.0080 1.0080
3302.610544 1.0080 1.0080 1.0080 1.0071 1.0061
3306.958373 1.0056 1.0051 1.0050 1.0050 1.0050
3311.306202 1.0050 1.0050 1.0050 1.0050 1.0050
3315.654030 1.0050 1.0050 1.0050 1.0050 1.0050
3320.001859 1.0050 1.0050 1.0050 1.0054 1.0059
3324.349687 1.0060 1.0060 1.0069 1.0079 1.0080
3328.697516 1.0080 1.0080 1.0080 1.0080 1.0080
3333.045345 1.0071 1.0061 1.0060 1.0060 1.0055
3337.393173 1.0050 1.0050 1.0050 1.0050 1.0050
3341.741002 1.0055 1.0060 1.0060 1.0060 1.0069
3346.088831 1.0079 1.0080 1.0080 1.0080 1.0080
3350.436659 1.0080 1.0080 1.0071 1.0061 1.0055
3354.784488 1.0050 1.0050 1.0050 1.0045 1.0040
3359.132316 1.0040 1.0040 1.0040 1.0040 1.0031
3363.480145 1.0021 1.0020 1.0020 1.0015 1.0010
3367.827974 1.0010 1.0010 1.0005 1.0000 0.9990
3372.175802 0.9980 0.9975 0.9970 0.9960 0.9950
3376.523631 0.9945 0.9940 0.9940 0.9940 0.9945
3380.871459 0.9950 0.9950 0.9950 0.9960 0.9970
3385.219288 0.9970 0.9970 0.9975 0.9980 0.9990
3389.567117 1.0000 1.0005 1.0010 1.0010 1.0010
3393.914945 1.0010 1.0010 1.0010 1.0010 1.0005
3398.262774 1.0000 1.0005 1.0010 1.0010 1.0010
3402.610603 1.0010 1.0010 1.0010 1.0010 1.0015
3406.958431 1.0020 1.0030 1.0040 1.0040 1.0040
3411.306260 1.0040 1.0040 1.0040 1.0040 1.0040
3415.654088 1.0040 1.0040 1.0040 1.0040 1.0040
3420.001917 1.0030 1.0020 1.0020 1.0020 1.0020
3424.349746 1.0020 1.0020 1.0020 1.0020 1.0020
3428.697574 1.0020 1.0020 1.0030 1.0040 1.0040
3433.045403 1.0040 1.0045 1.0050 1.0050 1.0050
3437.393231 1.0050 1.0050 1.0050 1.0050 1.0050
3441.741060 1.0050 1.0045 1.0040 1.0040 1.0039
3446.088889 1.0029 1.0020 1.0020 1.0020 1.0020
3450.436717 1.0020 1.0020 1.0021 1.0031 1.0040
3454.784546 1.0040 1.0040 1.0045 1.0050 1.0050
3459.132375 1.0050 1.0045 1.0040 1.0040 1.0040
3463.480203 1.0040 1.0040 1.0040 1.0040 1.0040
3467.828032 1.0040 1.0040 1.0039 1.0029 1.0020
3472.175860 1.0020 1.0020 1.0015 1.0010 1.0010
3476.523689 1.0010 1.0010 1.0009 1.0004 1.0000
3480.871518 1.0000 1.0000 1.0000 1.0001 1.0006
3485.219346 1.0010 1.0010 1.0011 1.0016 1.0021
3489.567175 1.0031 1.0040 1.0040 1.0040 1.0040
3493.915003 1.0040 1.0040 1.0039 1.0029 1.0020
3498.262832 1.0020 1.0019 1.0014 1.0010 1.0010
3502.610661 1.0010 1.0010 1.0010 1.0010 1.0011
3506.958489 1.0016 1.0020 1.0020 1.0020 1.0020
3511.306318 1.0020 1.0020 1.0020 1.0020 1.0020
3515.654147 1.0020 1.0022 1.0032 1.0041 1.0046
3520.001975 1.0050 1.0050 1.0051 1.0056 1.0062
3524.349804 1.0072 1.0080 1.0080 1.0081 1.0086
3528.697632 1.0090 1.0090 1.0091 1.0096 1.0100
3533.045461 1.0100 1.0100 1.0100 1.0100 1.0100
3537.393290 1.0100 1.0100 1.0099 1.0094 1.0090
3541.741118 1.0090 1.0090 1.0090 1.0090 1.0090
3546.088947 1.0089 1.0084 1.0080 1.0080 1.0080
3550.436775 1.0080 1.0081 1.0086 1.0090 1.0090
3554.784604 1.0090 1.0090 1.0091 1.0096 1.0102
3559.132433 1.0112 1.0121 1.0126 1.0130 1.0130
3563.480261 1.0130 1.0130 1.0130 1.0130 1.0129
3567.828090 1.0124 1.0118 1.0108 1.0100 1.0100
3572.175919 1.0098 1.0088 1.0076 1.0061 1.0049
3576.523747 1.0044 1.0040 1.0040 1.0040 1.0040
3580.871576 1.0041 1.0046 1.0051 1.0056 1.0060
3585.219404 1.0060 1.0063 1.0073 1.0081 1.0086
3589.567233 1.0090 1.0090 1.0090 1.0090 1.0089
3593.915062 1.0084 1.0080 1.0080 1.0080 1.0080
3598.262890 1.0077 1.0067 1.0060 1.0060 1.0059
3602.610719 1.0054 1.0050 1.0050 1.0050 1.0050
3606.958548 1.0051 1.0056 1.0060 1.0060 1.0063
3611.306376 1.0073 1.0080 1.0080 1.0080 1.0080
3615.654205 1.0082 1.0087 1.0090 1.0090 1.0090
3620.002033 1.0090 1.0090 1.0090 1.0090 1.0090
3624.349862 1.0088 1.0083 1.0075 1.0060 1.0050
3628.697691 1.0050 1.0048 1.0043 1.0040 1.0040
3633.045519 1.0037 1.0027 1.0020 1.0020 1.0020
3637.393348 1.0020 1.0020 1.0020 1.0020 1.0020
3641.741176 1.0023 1.0033 1.0040 1.0040 1.0040
3646.089005 1.0040 1.0040 1.0040 1.0043 1.0054
3650.436834 1.0060 1.0060 1.0060 1.0060 1.0060
3654.784662 1.0060 1.0058 1.0053 1.0048 1.0043
3659.132491 1.0036 1.0026 1.0020 1.0020 1.0024
3663.480320 1.0034 1.0040 1.0040 1.0040 1.0040
3667.828148 1.0040 1.0040 1.0042 1.0047 1.0050
3672.175977 1.0050 1.0050 1.0050 1.0050 1.0050
3676.523805 1.0052 1.0057 1.0060 1.0060 1.0060
3680.871634 1.0060 1.0060 1.0060 1.0058 1.0053
3685.219463 1.0050 1.0050 1.0050 1.0050 1.0048
3689.567291 1.0043 1.0040 1.0040 1.0040 1.0040
3693.915120 1.0036 1.0026 1.0020 1.0020 1.0024
3698.262948 1.0034 1.0040 1.0040 1.0040 1.0040
3702.610777 1.0042 1.0047 1.0052 1.0057 1.0060
3706.958606 1.0060 1.0058 1.0053 1.0048 1.0043
3711.306434 1.0040 1.0040 1.0036 1.0026 1.0020
3715.654263 1.0020 1.0020 1.0020 1.0024 1.0035
3720.002092 1.0040 1.0040 1.0042 1.0047 1.0052
3724.349920 1.0057 1.0060 1.0060 1.0065 1.0075
3728.697749 1.0080 1.0080 1.0082 1.0087 1.0090
3733.045577 1.0090 1.0090 1.0090 1.0088 1.0083
3737.393406 1.0075 1.0065 1.0060 1.0060 1.0060
3741.741235 1.0060 1.0058 1.0053 1.0050 1.0050
3746.089063 1.0048 1.0043 1.0040 1.0040 1.0040
3750.436892 1.0040
##END=
