##TITLE=ETHER, ETHYL
##JCAMP-DX=4.24
##DATA TYPE=INFRARED SPECTRUM
##CLASS=COBLENTZ III
##ORIGIN=DOW CORNING CORP.
##OWNER=COBLENTZ SOCIETY
Collection (C) 2009 copyright by the U.S. Secretary of Commerce
on behalf of the United States of America. All rights reserved.
##DATE=1966
##NAMES=diethyl ether
1-ethoxyethane
ETHANE, 1,1'-OXYBIS-
##CAS REGISTRY NO=60-29-7
##MOLFORM=C4 H10 O
##SOURCE REFERENCE=COBLENTZ NO. 4829
##$NIST SOURCE=COBLENTZ
##$NIST IMAGE=cob4829
##SPECTROMETER/DATA SYSTEM=PERKIN-ELMER 521 (GRATING)
##INSTRUMENT PARAMETERS=FILTERS AT 3150, 2500, 2000, 1150, 700, 410; GRATING CHANGES AT 2000, 630 CM^-^1
##STATE=SOLUTION (10% IN CCl4 FOR 3800-1300, 10% IN CS2 FOR 1300-620, 10% IN CCl4 FOR 620-250 CM^-^1) VERSUS SOLVENT
##PATH LENGTH=0.012, 0.011, AND 0.010 CM (CsBr CELL)
##SAMPLING PROCEDURE=TRANSMISSION
##RESOLUTION=4
##DATA PROCESSING=DIGITIZED BY NIST FROM HARD COPY (FROM TWO SEGMENTS)
##XUNITS=1/CM
##YUNITS=TRANSMITTANCE
##XFACTOR=1.000000
##YFACTOR=1
##DELTAX=0.982535
##FIRSTX=244.214
##LASTX=3791.16
##FIRSTY=0.82
##MAXX=3791.16
##MINX=244.214
##MAXY=0.901996
##MINY=0
##NPOINTS=3611
##XYDATA=(X++(Y..Y))
244.214000 0.8200 0.8200 0.8200 0.8200 0.8180
249.126674 0.8180 0.8170 0.8170 0.8160 0.8160
254.039347 0.8160 0.8170 0.8170 0.8170 0.8180
258.952021 0.8200 0.8210 0.8220 0.8220 0.8240
263.864695 0.8240 0.8250 0.8250 0.8250 0.8250
268.777368 0.8260 0.8260 0.8260 0.8260 0.8260
273.690042 0.8280 0.8280 0.8280 0.8280 0.8280
278.602716 0.8290 0.8290 0.8290 0.8290 0.8290
283.515390 0.8290 0.8320 0.8320 0.8320 0.8330
288.428063 0.8330 0.8330 0.8330 0.8340 0.8360
293.340737 0.8360 0.8370 0.8380 0.8380 0.8400
298.253411 0.8410 0.8440 0.8440 0.8450 0.8450
303.166084 0.8450 0.8440 0.8420 0.8420 0.8420
308.078758 0.8420 0.8420 0.8440 0.8450 0.8460
312.991432 0.8460 0.8510 0.8520 0.8530 0.8550
317.904105 0.8590 0.8610 0.8630 0.8630 0.8640
322.816779 0.8640 0.8640 0.8650 0.8650 0.8670
327.729453 0.8670 0.8670 0.8670 0.8670 0.8680
332.642127 0.8690 0.8710 0.8710 0.8720 0.8720
337.554800 0.8720 0.8720 0.8720 0.8720 0.8720
342.467474 0.8720 0.8720 0.8720 0.8720 0.8710
347.380148 0.8710 0.8710 0.8710 0.8690 0.8670
352.292821 0.8650 0.8650 0.8650 0.8640 0.8640
357.205495 0.8600 0.8570 0.8550 0.8530 0.8510
362.118169 0.8460 0.8450 0.8410 0.8370 0.8360
367.030842 0.8340 0.8330 0.8320 0.8290 0.8280
371.943516 0.8250 0.8250 0.8240 0.8240 0.8220
376.856190 0.8220 0.8220 0.8240 0.8250 0.8250
381.768864 0.8260 0.8280 0.8280 0.8290 0.8300
386.681537 0.8320 0.8320 0.8320 0.8340 0.8340
391.594211 0.8360 0.8370 0.8380 0.8410 0.8460
396.506885 0.8490 0.8510 0.8530 0.8550 0.8570
401.419558 0.8590 0.8600 0.8600 0.8600 0.8600
406.332232 0.8600 0.8610 0.8630 0.8640 0.8640
411.244906 0.8640 0.8640 0.8640 0.8640 0.8630
416.157579 0.8630 0.8610 0.8600 0.8600 0.8590
421.070253 0.8570 0.8560 0.8550 0.8530 0.8520
425.982927 0.8480 0.8440 0.8400 0.8370 0.8360
430.895601 0.8280 0.8220 0.8120 0.7980 0.7900
435.808274 0.7730 0.7660 0.7620 0.7620 0.7670
440.720948 0.7710 0.7780 0.7820 0.7950 0.8080
445.633622 0.8120 0.8170 0.8210 0.8240 0.8260
450.546295 0.8300 0.8320 0.8320 0.8320 0.8320
455.458969 0.8330 0.8340 0.8340 0.8360 0.8360
460.371643 0.8380 0.8410 0.8440 0.8460 0.8480
465.284316 0.8520 0.8530 0.8560 0.8590 0.8600
470.196990 0.8600 0.8600 0.8600 0.8590 0.8590
475.109664 0.8570 0.8570 0.8570 0.8560 0.8550
480.022338 0.8550 0.8530 0.8520 0.8510 0.8490
484.935011 0.8490 0.8480 0.8440 0.8420 0.8410
489.847685 0.8400 0.8370 0.8360 0.8320 0.8300
494.760359 0.8280 0.8250 0.8240 0.8220 0.8210
499.673032 0.8200 0.8200 0.8210 0.8210 0.8220
504.585706 0.8250 0.8280 0.8330 0.8360 0.8380
509.498380 0.8410 0.8460 0.8480 0.8480 0.8490
514.411053 0.8490 0.8510 0.8520 0.8530 0.8530
519.323727 0.8530 0.8550 0.8550 0.8570 0.8590
524.236401 0.8590 0.8600 0.8600 0.8600 0.8600
529.149075 0.8600 0.8600 0.8590 0.8590 0.8590
534.061748 0.8590 0.8600 0.8610 0.8610 0.8610
538.974422 0.8630 0.8640 0.8640 0.8610 0.8610
543.887096 0.8600 0.8600 0.8600 0.8600 0.8600
548.799769 0.8600 0.8600 0.8590 0.8570 0.8570
553.712443 0.8570 0.8570 0.8590 0.8590 0.8590
558.625117 0.8590 0.8600 0.8570 0.8570 0.8570
563.537790 0.8570 0.8590 0.8600 0.8600 0.8600
568.450464 0.8600 0.8610 0.8600 0.8600 0.8600
573.363138 0.8600 0.8610 0.8610 0.8610 0.8610
578.275812 0.8610 0.8610 0.8610 0.8600 0.8600
583.188485 0.8590 0.8590 0.8590 0.8590 0.8600
588.101159 0.8590 0.8590 0.8590 0.8590 0.8600
593.013833 0.8600 0.8600 0.8590 0.8590 0.8590
597.926506 0.8590 0.8590 0.8590 0.8590 0.8590
602.839180 0.8600 0.8600 0.8600 0.8600 0.8600
607.751854 0.8610 0.8610 0.8630 0.8630 0.8610
612.664527 0.8610 0.8610 0.8610 0.8610 0.8600
617.577201 0.8600 0.8590 0.8570 0.8550 0.8520
622.489875 0.8510 0.8490 0.8480 0.8450 0.8450
627.402549 0.8450 0.8440 0.8440 0.8420 0.8410
632.315222 0.8400 0.8400 0.8380 0.8380 0.8370
637.227896 0.8370 0.8370 0.8360 0.8340 0.8340
642.140570 0.8340 0.8330 0.8330 0.8320 0.8320
647.053243 0.8320 0.8300 0.8300 0.8300 0.8300
651.965917 0.8320 0.8320 0.8330 0.8340 0.8360
656.878591 0.8380 0.8400 0.8400 0.8410 0.8400
661.791264 0.8380 0.8380 0.8400 0.8440 0.8490
666.703938 0.8490 0.8510 0.8550 0.8560 0.8590
671.616612 0.8590 0.8610 0.8630 0.8630 0.8610
676.529286 0.8610 0.8610 0.8610 0.8630 0.8630
681.441959 0.8630 0.8640 0.8640 0.8640 0.8640
686.354633 0.8640 0.8640 0.8640 0.8640 0.8640
691.267307 0.8640 0.8650 0.8650 0.8650 0.8650
696.179980 0.8650 0.8650 0.8650 0.8670 0.8670
701.092654 0.8670 0.8680 0.8680 0.8690 0.8690
706.005328 0.8690 0.8710 0.8710 0.8710 0.8710
710.918001 0.8710 0.8710 0.8710 0.8710 0.8710
715.830675 0.8690 0.8690 0.8690 0.8690 0.8690
720.743349 0.8690 0.8690 0.8690 0.8690 0.8680
725.656023 0.8680 0.8680 0.8680 0.8680 0.8680
730.568696 0.8680 0.8680 0.8680 0.8680 0.8680
735.481370 0.8680 0.8680 0.8680 0.8670 0.8670
740.394044 0.8650 0.8640 0.8640 0.8630 0.8630
745.306717 0.8630 0.8630 0.8630 0.8610 0.8610
750.219391 0.8600 0.8570 0.8560 0.8550 0.8550
755.132065 0.8550 0.8550 0.8530 0.8530 0.8530
760.044738 0.8520 0.8490 0.8460 0.8450 0.8450
764.957412 0.8440 0.8420 0.8400 0.8370 0.8370
769.870086 0.8340 0.8320 0.8290 0.8250 0.8210
774.782760 0.8200 0.8170 0.8100 0.8020 0.7950
779.695433 0.7890 0.7710 0.7670 0.7620 0.7471
784.608107 0.7340 0.7270 0.7060 0.6880 0.6810
789.520781 0.6680 0.6530 0.6490 0.6301 0.6300
794.433454 0.6800 0.6890 0.6990 0.7030 0.7100
799.346128 0.7230 0.7300 0.7380 0.7420 0.7440
804.258802 0.7440 0.7440 0.7440 0.7420 0.7390
809.171475 0.7360 0.7340 0.7270 0.7230 0.7110
814.084149 0.6960 0.6930 0.6880 0.6850 0.6810
818.996823 0.6800 0.6790 0.6790 0.6800 0.6800
823.909497 0.6790 0.6750 0.6670 0.6630 0.6510
828.822170 0.6380 0.6320 0.6081 0.5851 0.5750
833.734844 0.5710 0.5660 0.5650 0.5620 0.5390
838.647518 0.5160 0.4801 0.4481 0.4301 0.4181
843.560191 0.4180 0.4510 0.4630 0.5300 0.5590
848.472865 0.5870 0.6239 0.6589 0.7078 0.7339
853.385539 0.7500 0.7590 0.7620 0.7730 0.7780
858.298212 0.7820 0.7850 0.7900 0.7940 0.7980
863.210886 0.7980 0.8000 0.8010 0.8020 0.8020
868.123560 0.8040 0.8040 0.8050 0.8080 0.8120
873.036234 0.8170 0.8210 0.8240 0.8260 0.8260
877.948907 0.8280 0.8280 0.8290 0.8290 0.8290
882.861581 0.8290 0.8290 0.8290 0.8290 0.8290
887.774255 0.8290 0.8280 0.8250 0.8240 0.8220
892.686928 0.8210 0.8200 0.8140 0.8100 0.8090
897.599602 0.8080 0.8060 0.8010 0.7950 0.7900
902.512276 0.7830 0.7770 0.7770 0.7670 0.7610
907.424949 0.7570 0.7530 0.7440 0.7111 0.6990
912.337623 0.6830 0.6770 0.6750 0.6750 0.6760
917.250297 0.6810 0.6870 0.6890 0.7000 0.7060
922.162971 0.7070 0.7070 0.7040 0.6970 0.6850
927.075644 0.6830 0.6670 0.6251 0.6120 0.5951
931.988318 0.5790 0.5630 0.5630 0.5770 0.5890
936.900992 0.6010 0.6170 0.6988 0.7159 0.7479
941.813665 0.7670 0.7860 0.7970 0.8010 0.8140
946.726339 0.8180 0.8200 0.8220 0.8280 0.8280
951.639013 0.8290 0.8300 0.8300 0.8320 0.8320
956.551686 0.8320 0.8320 0.8320 0.8320 0.8320
961.464360 0.8320 0.8320 0.8320 0.8300 0.8290
966.377034 0.8280 0.8260 0.8250 0.8240 0.8220
971.289708 0.8210 0.8200 0.8180 0.8160 0.8140
976.202381 0.8140 0.8130 0.8120 0.8120 0.8090
981.115055 0.8080 0.8060 0.8050 0.8000 0.7970
986.027729 0.7910 0.7900 0.7860 0.7820 0.7790
990.940402 0.7740 0.7650 0.7620 0.7570 0.7470
995.853076 0.7380 0.7350 0.7240 0.7190 0.7120
1000.765750 0.7020 0.6870 0.6800 0.6760 0.6690
1005.678423 0.6590 0.6530 0.6410 0.6340 0.6320
1010.591097 0.6170 0.5970 0.5740 0.5660 0.5360
1015.503771 0.5100 0.4920 0.4711 0.4491 0.4291
1020.416445 0.4140 0.4120 0.4120 0.4140 0.4250
1025.329118 0.4370 0.4410 0.4490 0.4490 0.4480
1030.241792 0.4420 0.4380 0.4330 0.4300 0.4180
1035.154466 0.4040 0.3890 0.3730 0.3431 0.3360
1040.067139 0.3260 0.2950 0.2930 0.2950 0.3150
1044.979813 0.3350 0.3550 0.3789 0.3810 0.3949
1049.892487 0.4060 0.4090 0.4100 0.4100 0.4090
1054.805160 0.4050 0.4010 0.3970 0.3900 0.3820
1059.717834 0.3650 0.3530 0.3230 0.3150 0.2970
1064.630508 0.2770 0.2550 0.2340 0.2121 0.1891
1069.543182 0.1660 0.1380 0.1230 0.1110 0.1100
1074.455855 0.1080 0.1100 0.1150 0.1618 0.2058
1079.368529 0.2081 0.2491 0.2990 0.3000 0.3000
1084.281203 0.3000 0.3000 0.2990 0.2990 0.2960
1089.193876 0.2930 0.2890 0.2640 0.2490 0.2250
1094.106550 0.2080 0.1830 0.1590 0.1420 0.1310
1099.019224 0.1179 0.0750 0.0600 0.0460 0.0280
1103.931897 0.0140 0.0080 0.0050 0.0020 0.0020
1108.844571 0.0010 0.0000 0.0000 0.0000 0.0000
1113.757245 0.0000 0.0000 0.0000 0.0000 0.0000
1118.669918 0.0000 0.0000 0.0000 0.0000 0.0000
1123.582592 0.0000 0.0000 0.0010 0.0010 0.0020
1128.495266 0.0100 0.0170 0.0240 0.0290 0.0330
1133.407940 0.0340 0.0360 0.0380 0.0380 0.0410
1138.320613 0.0410 0.0410 0.0400 0.0380 0.0360
1143.233287 0.0360 0.0340 0.0340 0.0340 0.0360
1148.145961 0.0400 0.0440 0.0480 0.0520 0.0550
1153.058634 0.0560 0.0630 0.0670 0.0790 0.0890
1157.971308 0.0990 0.1060 0.1120 0.1190 0.1260
1162.883982 0.1280 0.1340 0.1420 0.1440 0.1570
1167.796655 0.1630 0.1710 0.1820 0.2000 0.2040
1172.709329 0.2080 0.2080 0.2090 0.2090 0.2090
1177.622003 0.2090 0.2100 0.2120 0.2180 0.2440
1182.534677 0.2530 0.2770 0.3109 0.3609 0.4039
1187.447350 0.4331 0.4570 0.4811 0.5260 0.5390
1192.360024 0.5510 0.5700 0.5790 0.6000 0.6050
1197.272698 0.6300 0.6360 0.6450 0.6520 0.6600
1202.185371 0.6680 0.6760 0.6840 0.6890 0.6950
1207.098045 0.6960 0.7000 0.7020 0.7060 0.7100
1212.010719 0.7140 0.7200 0.7260 0.7270 0.7300
1216.923392 0.7340 0.7360 0.7380 0.7380 0.7400
1221.836066 0.7420 0.7460 0.7460 0.7480 0.7500
1226.748740 0.7500 0.7510 0.7530 0.7550 0.7550
1231.661414 0.7570 0.7580 0.7580 0.7590 0.7590
1236.574087 0.7610 0.7610 0.7610 0.7610 0.7610
1241.486761 0.7590 0.7570 0.7570 0.7550 0.7540
1246.399435 0.7540 0.7530 0.7500 0.7460 0.7420
1251.312108 0.7390 0.7360 0.7350 0.7350 0.7320
1256.224782 0.7320 0.7320 0.7310 0.7300 0.7260
1261.137456 0.7110 0.6990 0.6920 0.6880 0.6800
1266.050129 0.6730 0.6520 0.6420 0.6360 0.6260
1270.962803 0.6050 0.5820 0.5620 0.5400 0.5390
1275.875477 0.5400 0.5420 0.5460 0.5500 0.5530
1280.788151 0.5610 0.5620 0.5610 0.5570 0.5440
1285.700824 0.5380 0.5280 0.5220 0.5100 0.4960
1290.613498 0.4800 0.4680 0.4610 0.4590 0.4570
1295.526172 0.4570 0.4590 0.4640 0.4710 0.4730
1300.438845 0.5340 0.5819 0.6289 0.6889 0.7139
1305.351519 0.7310 0.7440 0.7540 0.7710 0.7780
1310.264193 0.7810 0.7930 0.7940 0.7970 0.8000
1315.176866 0.8040 0.8050 0.8080 0.8080 0.8080
1320.089540 0.8080 0.8060 0.8060 0.8040 0.8020
1325.002214 0.8010 0.8000 0.7970 0.7970 0.7940
1329.914888 0.7910 0.7890 0.7810 0.7780 0.7730
1334.827561 0.7610 0.7480 0.7460 0.7320 0.7150
1339.740235 0.7110 0.6830 0.6530 0.5482 0.4911
1344.652909 0.4298 0.3319 0.2800 0.2280 0.1240
1349.565582 0.1240 0.1470 0.1779 0.2259 0.4523
1354.478256 0.5151 0.5420 0.5690 0.5910 0.5910
1359.390930 0.5910 0.5860 0.5740 0.5241 0.5001
1364.303603 0.4679 0.4329 0.3909 0.3580 0.3270
1369.216277 0.3060 0.2610 0.2460 0.2260 0.2160
1374.128951 0.1999 0.1629 0.1180 0.0910 0.0770
1379.041625 0.0640 0.0520 0.0490 0.0510 0.0719
1383.954298 0.0961 0.1321 0.1671 0.2290 0.2800
1388.866972 0.3060 0.3500 0.3710 0.4049 0.4160
1393.779646 0.4341 0.4640 0.4851 0.5200 0.5440
1398.692319 0.5540 0.5620 0.5750 0.5890 0.6050
1403.604993 0.6120 0.6130 0.6120 0.6090 0.6040
1408.517667 0.5900 0.5710 0.5470 0.5320 0.5151
1413.430340 0.5150 0.5300 0.5430 0.5500 0.5550
1418.343014 0.6000 0.6180 0.6290 0.6400 0.6450
1423.255688 0.6510 0.6490 0.6460 0.6410 0.6340
1428.168362 0.6290 0.6120 0.6090 0.5970 0.5770
1433.081035 0.5440 0.5239 0.4720 0.4460 0.4170
1437.993709 0.3890 0.3381 0.3140 0.2911 0.2491
1442.906383 0.2460 0.2491 0.2770 0.3060 0.3310
1447.819056 0.3420 0.3890 0.4459 0.4460 0.4420
1452.731730 0.4320 0.4159 0.3860 0.3830 0.3830
1457.644404 0.4060 0.4290 0.4809 0.4990 0.5299
1462.557077 0.5590 0.5620 0.5620 0.5650 0.5660
1467.469751 0.5710 0.5780 0.5830 0.5930 0.6010
1472.382425 0.6040 0.6060 0.6060 0.6090 0.6120
1477.295099 0.6130 0.6140 0.6140 0.6120 0.6050
1482.207772 0.5899 0.5440 0.5280 0.5140 0.5030
1487.120446 0.4890 0.4760 0.4630 0.4630 0.4869
1492.033120 0.5111 0.5360 0.5570 0.5771 0.6950
1496.945793 0.7200 0.7350 0.7390 0.7570 0.7660
1501.858467 0.7820 0.7950 0.8040 0.8100 0.8120
1506.771141 0.8130 0.8140 0.8140 0.8160 0.8170
1511.683814 0.8180 0.8210 0.8220 0.8250 0.8300
1516.596488 0.8330 0.8330 0.8330 0.8360 0.8370
1521.509162 0.8400 0.8450 0.8490 0.8530 0.8530
1526.421836 0.8550 0.8560 0.8570 0.8570 0.8590
1531.334509 0.8590 0.8600 0.8600 0.8600 0.8610
1536.247183 0.8610 0.8610 0.8610 0.8610 0.8600
1541.159857 0.8590 0.8600 0.8600 0.8610 0.8610
1546.072530 0.8590 0.8590 0.8590 0.8570 0.8560
1550.985204 0.8560 0.8600 0.8590 0.8590 0.8590
1555.897878 0.8570 0.8560 0.8560 0.8570 0.8590
1560.810551 0.8610 0.8610 0.8600 0.8600 0.8600
1565.723225 0.8610 0.8610 0.8630 0.8630 0.8610
1570.635899 0.8600 0.8600 0.8600 0.8590 0.8570
1575.548573 0.8570 0.8590 0.8590 0.8600 0.8600
1580.461246 0.8630 0.8640 0.8640 0.8640 0.8640
1585.373920 0.8640 0.8650 0.8650 0.8670 0.8670
1590.286594 0.8680 0.8680 0.8690 0.8710 0.8690
1595.199267 0.8710 0.8710 0.8710 0.8710 0.8720
1600.111941 0.8720 0.8730 0.8720 0.8720 0.8710
1605.024615 0.8710 0.8690 0.8710 0.8710 0.8710
1609.937288 0.8710 0.8720 0.8720 0.8710 0.8710
1614.849962 0.8710 0.8710 0.8710 0.8710 0.8720
1619.762636 0.8720 0.8730 0.8730 0.8720 0.8720
1624.675310 0.8720 0.8720 0.8720 0.8720 0.8720
1629.587983 0.8720 0.8720 0.8720 0.8750 0.8750
1634.500657 0.8750 0.8750 0.8750 0.8750 0.8750
1639.413331 0.8760 0.8760 0.8750 0.8750 0.8750
1644.326004 0.8750 0.8750 0.8750 0.8760 0.8760
1649.238678 0.8760 0.8770 0.8790 0.8770 0.8770
1654.151352 0.8770 0.8760 0.8750 0.8730 0.8730
1659.064025 0.8750 0.8750 0.8750 0.8750 0.8730
1663.976699 0.8730 0.8760 0.8760 0.8760 0.8760
1668.889373 0.8760 0.8770 0.8730 0.8730 0.8760
1673.802047 0.8760 0.8770 0.8760 0.8760 0.8760
1678.714720 0.8760 0.8760 0.8730 0.8770 0.8770
1683.627394 0.8770 0.8770 0.8750 0.8730 0.8730
1688.540068 0.8730 0.8730 0.8730 0.8750 0.8790
1693.452741 0.8800 0.8800 0.8800 0.8800 0.8800
1698.365415 0.8800 0.8810 0.8830 0.8830 0.8810
1703.278089 0.8810 0.8810 0.8800 0.8800 0.8800
1708.190762 0.8810 0.8810 0.8810 0.8810 0.8810
1713.103436 0.8810 0.8810 0.8810 0.8830 0.8830
1718.016110 0.8840 0.8850 0.8850 0.8850 0.8870
1722.928784 0.8870 0.8870 0.8850 0.8840 0.8850
1727.841457 0.8850 0.8870 0.8870 0.8870 0.8870
1732.754131 0.8870 0.8850 0.8850 0.8870 0.8870
1737.666805 0.8870 0.8870 0.8850 0.8850 0.8840
1742.579478 0.8840 0.8830 0.8810 0.8810 0.8800
1747.492152 0.8800 0.8790 0.8790 0.8800 0.8810
1752.404826 0.8810 0.8830 0.8830 0.8840 0.8840
1757.317499 0.8850 0.8850 0.8850 0.8870 0.8870
1762.230173 0.8870 0.8870 0.8870 0.8870 0.8870
1767.142847 0.8850 0.8850 0.8840 0.8830 0.8830
1772.055521 0.8810 0.8810 0.8800 0.8800 0.8790
1776.968194 0.8790 0.8790 0.8790 0.8800 0.8800
1781.880868 0.8800 0.8800 0.8810 0.8830 0.8840
1786.793542 0.8850 0.8870 0.8880 0.8890 0.8890
1791.706215 0.8920 0.8920 0.8930 0.8930 0.8930
1796.618889 0.8950 0.8960 0.8960 0.8970 0.8970
1801.531563 0.8970 0.8970 0.8970 0.8970 0.8960
1806.444236 0.8960 0.8950 0.8950 0.8950 0.8930
1811.356910 0.8930 0.8930 0.8930 0.8930 0.8950
1816.269584 0.8950 0.8960 0.8960 0.8970 0.8970
1821.182258 0.8990 0.9000 0.9000 0.8990 0.8990
1826.094931 0.8990 0.8970 0.8960 0.8960 0.8960
1831.007605 0.8950 0.8950 0.8950 0.8960 0.8960
1835.920279 0.8970 0.8990 0.8970 0.8970 0.8970
1840.832952 0.8970 0.8960 0.8950 0.8950 0.8930
1845.745626 0.8930 0.8930 0.8920 0.8920 0.8910
1850.658300 0.8910 0.8910 0.8880 0.8870 0.8850
1855.570973 0.8850 0.8840 0.8840 0.8840 0.8840
1860.483647 0.8840 0.8840 0.8840 0.8830 0.8830
1865.396321 0.8830 0.8840 0.8850 0.8850 0.8850
1870.308995 0.8850 0.8870 0.8870 0.8850 0.8850
1875.221668 0.8850 0.8850 0.8850 0.8840 0.8830
1880.134342 0.8830 0.8800 0.8800 0.8800 0.8790
1885.047016 0.8760 0.8760 0.8750 0.8730 0.8730
1889.959689 0.8730 0.8750 0.8750 0.8760 0.8760
1894.872363 0.8760 0.8760 0.8760 0.8750 0.8730
1899.785037 0.8730 0.8710 0.8690 0.8690 0.8680
1904.697710 0.8680 0.8680 0.8670 0.8670 0.8670
1909.610384 0.8650 0.8650 0.8650 0.8650 0.8650
1914.523058 0.8650 0.8640 0.8630 0.8630 0.8610
1919.435731 0.8600 0.8590 0.8570 0.8560 0.8560
1924.348405 0.8560 0.8560 0.8570 0.8600 0.8610
1929.261079 0.8610 0.8630 0.8630 0.8610 0.8600
1934.173753 0.8570 0.8560 0.8530 0.8520 0.8520
1939.086426 0.8510 0.8480 0.8450 0.8410 0.8370
1943.999100 0.8360 0.8330 0.8320 0.8260 0.8240
1948.911774 0.8220 0.8200 0.8140 0.8080 0.8040
1953.824447 0.7980 0.7970 0.7860 0.7830 0.7810
1958.737121 0.7780 0.7780 0.7770 0.7770 0.7750
1963.649795 0.7750 0.7770 0.7820 0.7910 0.7950
1968.562468 0.8010 0.8060 0.8120 0.8160 0.8180
1973.475142 0.8180 0.8210 0.8240 0.8280 0.8340
1978.387816 0.8370 0.8400 0.8420 0.8450 0.8510
1983.300490 0.8550 0.8600 0.8630 0.8640 0.8650
1988.213163 0.8670 0.8690 0.8690 0.8690 0.8690
1993.125837 0.8680 0.8680 0.8680 0.8690 0.8710
1998.038511 0.8730 0.8750 0.8760 0.8765 0.8770
2002.951184 0.8785 0.8800 0.8815 0.8830 0.8840
2007.863858 0.8850 0.8860 0.8870 0.8875 0.8880
2012.776532 0.8885 0.8890 0.8890 0.8890 0.8890
2017.689205 0.8890 0.8900 0.8910 0.8910 0.8910
2022.601879 0.8915 0.8920 0.8920 0.8920 0.8920
2027.514553 0.8920 0.8920 0.8920 0.8920 0.8920
2032.427227 0.8925 0.8930 0.8930 0.8930 0.8940
2037.339900 0.8950 0.8955 0.8960 0.8955 0.8950
2042.252574 0.8950 0.8950 0.8940 0.8930 0.8940
2047.165248 0.8950 0.8940 0.8930 0.8930 0.8930
2052.077921 0.8930 0.8930 0.8930 0.8930 0.8930
2056.990595 0.8930 0.8930 0.8930 0.8930 0.8930
2061.903269 0.8925 0.8920 0.8925 0.8930 0.8930
2066.815942 0.8930 0.8925 0.8920 0.8920 0.8920
2071.728616 0.8915 0.8910 0.8910 0.8910 0.8910
2076.641290 0.8910 0.8895 0.8880 0.8865 0.8850
2081.553964 0.8840 0.8830 0.8820 0.8810 0.8805
2086.466637 0.8800 0.8800 0.8800 0.8805 0.8810
2091.379311 0.8810 0.8810 0.8820 0.8830 0.8835
2096.291985 0.8840 0.8840 0.8840 0.8845 0.8850
2101.204658 0.8860 0.8870 0.8875 0.8880 0.8885
2106.117332 0.8890 0.8890 0.8890 0.8890 0.8890
2111.030006 0.8890 0.8890 0.8885 0.8880 0.8875
2115.942679 0.8870 0.8855 0.8840 0.8825 0.8810
2120.855353 0.8800 0.8790 0.8790 0.8790 0.8775
2125.768027 0.8760 0.8755 0.8750 0.8750 0.8750
2130.680701 0.8750 0.8750 0.8750 0.8750 0.8750
2135.593374 0.8750 0.8740 0.8730 0.8730 0.8730
2140.506048 0.8725 0.8720 0.8720 0.8720 0.8715
2145.418722 0.8710 0.8710 0.8710 0.8700 0.8690
2150.331395 0.8685 0.8680 0.8680 0.8680 0.8680
2155.244069 0.8680 0.8680 0.8680 0.8680 0.8680
2160.156743 0.8685 0.8690 0.8690 0.8690 0.8700
2165.069416 0.8710 0.8710 0.8710 0.8715 0.8720
2169.982090 0.8720 0.8720 0.8725 0.8730 0.8730
2174.894764 0.8730 0.8730 0.8730 0.8730 0.8730
2179.807438 0.8725 0.8720 0.8705 0.8690 0.8690
2184.720111 0.8690 0.8685 0.8680 0.8680 0.8680
2189.632785 0.8675 0.8670 0.8660 0.8650 0.8645
2194.545459 0.8640 0.8640 0.8640 0.8640 0.8640
2199.458132 0.8655 0.8670 0.8675 0.8680 0.8685
2204.370806 0.8690 0.8690 0.8690 0.8690 0.8690
2209.283480 0.8690 0.8690 0.8680 0.8670 0.8655
2214.196153 0.8640 0.8640 0.8640 0.8640 0.8640
2219.108827 0.8635 0.8630 0.8630 0.8630 0.8630
2224.021501 0.8630 0.8630 0.8630 0.8630 0.8630
2228.934175 0.8635 0.8640 0.8645 0.8650 0.8650
2233.846848 0.8650 0.8660 0.8670 0.8670 0.8670
2238.759522 0.8675 0.8680 0.8680 0.8680 0.8680
2243.672196 0.8680 0.8665 0.8650 0.8650 0.8650
2248.584869 0.8650 0.8650 0.8650 0.8650 0.8630
2253.497543 0.8610 0.8605 0.8600 0.8600 0.8600
2258.410217 0.8595 0.8590 0.8580 0.8570 0.8565
2263.322890 0.8560 0.8560 0.8560 0.8555 0.8550
2268.235564 0.8540 0.8530 0.8530 0.8530 0.8530
2273.148238 0.8530 0.8530 0.8530 0.8530 0.8530
2278.060912 0.8530 0.8530 0.8540 0.8550 0.8555
2282.973585 0.8560 0.8565 0.8570 0.8585 0.8600
2287.886259 0.8605 0.8610 0.8620 0.8630 0.8635
2292.798933 0.8640 0.8645 0.8650 0.8660 0.8670
2297.711606 0.8670 0.8670 0.8675 0.8680 0.8680
2302.624280 0.8680 0.8685 0.8690 0.8690 0.8690
2307.536954 0.8700 0.8710 0.8715 0.8720 0.8725
2312.449627 0.8730 0.8745 0.8760 0.8760 0.8760
2317.362301 0.8755 0.8750 0.8750 0.8750 0.8750
2322.274975 0.8750 0.8740 0.8730 0.8730 0.8730
2327.187649 0.8730 0.8730 0.8730 0.8730 0.8725
2332.100322 0.8720 0.8720 0.8720 0.8720 0.8720
2337.012996 0.8725 0.8730 0.8750 0.8770 0.8780
2341.925670 0.8790 0.8790 0.8790 0.8790 0.8790
2346.838343 0.8780 0.8770 0.8770 0.8770 0.8765
2351.751017 0.8760 0.8760 0.8760 0.8760 0.8760
2356.663691 0.8755 0.8750 0.8750 0.8750 0.8740
2361.576364 0.8730 0.8730 0.8730 0.8730 0.8730
2366.489038 0.8730 0.8730 0.8730 0.8730 0.8740
2371.401712 0.8750 0.8755 0.8760 0.8765 0.8770
2376.314386 0.8770 0.8770 0.8770 0.8770 0.8770
2381.227059 0.8770 0.8770 0.8770 0.8765 0.8760
2386.139733 0.8760 0.8760 0.8755 0.8750 0.8750
2391.052407 0.8750 0.8740 0.8730 0.8725 0.8720
2395.965080 0.8715 0.8710 0.8710 0.8710 0.8700
2400.877754 0.8690 0.8690 0.8690 0.8685 0.8680
2405.790428 0.8675 0.8670 0.8660 0.8650 0.8650
2410.703101 0.8650 0.8650 0.8650 0.8645 0.8640
2415.615775 0.8640 0.8640 0.8640 0.8640 0.8635
2420.528449 0.8630 0.8620 0.8610 0.8605 0.8600
2425.441123 0.8600 0.8600 0.8600 0.8600 0.8595
2430.353796 0.8590 0.8590 0.8590 0.8595 0.8600
2435.266470 0.8605 0.8610 0.8625 0.8640 0.8645
2440.179144 0.8650 0.8650 0.8650 0.8645 0.8640
2445.091817 0.8640 0.8640 0.8645 0.8650 0.8650
2450.004491 0.8650 0.8645 0.8640 0.8640 0.8640
2454.917165 0.8645 0.8650 0.8660 0.8670 0.8660
2459.829838 0.8650 0.8650 0.8650 0.8660 0.8670
2464.742512 0.8675 0.8680 0.8680 0.8680 0.8680
2469.655186 0.8680 0.8685 0.8690 0.8700 0.8710
2474.567860 0.8710 0.8710 0.8715 0.8720 0.8715
2479.480533 0.8710 0.8710 0.8710 0.8710 0.8710
2484.393207 0.8700 0.8690 0.8690 0.8690 0.8680
2489.305881 0.8670 0.8670 0.8670 0.8680 0.8690
2494.218554 0.8700 0.8710 0.8710 0.8710 0.8710
2499.131228 0.8710 0.8710 0.8710 0.8710 0.8710
2504.043902 0.8710 0.8710 0.8700 0.8690 0.8690
2508.956575 0.8690 0.8690 0.8690 0.8690 0.8690
2513.869249 0.8700 0.8710 0.8710 0.8710 0.8710
2518.781923 0.8710 0.8710 0.8710 0.8710 0.8710
2523.694597 0.8700 0.8690 0.8685 0.8680 0.8675
2528.607270 0.8670 0.8660 0.8650 0.8650 0.8650
2533.519944 0.8650 0.8650 0.8650 0.8650 0.8645
2538.432618 0.8640 0.8645 0.8650 0.8645 0.8640
2543.345291 0.8635 0.8630 0.8630 0.8630 0.8620
2548.257965 0.8610 0.8610 0.8610 0.8605 0.8600
2553.170639 0.8600 0.8600 0.8585 0.8570 0.8570
2558.083312 0.8570 0.8565 0.8560 0.8545 0.8530
2562.995986 0.8525 0.8520 0.8515 0.8510 0.8510
2567.908660 0.8510 0.8500 0.8490 0.8475 0.8460
2572.821334 0.8455 0.8450 0.8450 0.8450 0.8450
2577.734007 0.8450 0.8445 0.8440 0.8425 0.8410
2582.646681 0.8395 0.8380 0.8360 0.8340 0.8315
2587.559355 0.8290 0.8225 0.8160 0.8140 0.8120
2592.472028 0.8065 0.8010 0.7940 0.7870 0.7845
2597.384702 0.7820 0.7805 0.7790 0.7780 0.7770
2602.297376 0.7750 0.7730 0.7710 0.7690 0.7680
2607.210049 0.7670 0.7670 0.7670 0.7680 0.7690
2612.122723 0.7695 0.7700 0.7715 0.7730 0.7775
2617.035397 0.7820 0.7835 0.7850 0.7915 0.7979
2621.948071 0.8035 0.8089 0.8095 0.8100 0.8100
2626.860744 0.8100 0.8110 0.8120 0.8120 0.8120
2631.773418 0.8110 0.8100 0.8100 0.8100 0.8095
2636.686092 0.8090 0.8090 0.8090 0.8085 0.8080
2641.598765 0.8080 0.8080 0.8070 0.8060 0.8055
2646.511439 0.8050 0.8050 0.8050 0.8045 0.8040
2651.424113 0.8040 0.8040 0.8040 0.8040 0.8040
2656.336786 0.8040 0.8040 0.8040 0.8040 0.8040
2661.249460 0.8045 0.8050 0.8055 0.8060 0.8075
2666.162134 0.8090 0.8090 0.8090 0.8085 0.8080
2671.074808 0.8045 0.8010 0.7990 0.7970 0.7955
2675.987481 0.7940 0.7940 0.7940 0.7915 0.7890
2680.900155 0.7860 0.7830 0.7771 0.7711 0.7646
2685.812829 0.7581 0.7520 0.7459 0.7345 0.7230
2690.725502 0.7125 0.7020 0.6930 0.6840 0.6641
2695.638176 0.6441 0.6440 0.6440 0.6639 0.6838
2700.550850 0.6894 0.6949 0.7044 0.7139 0.7199
2705.463523 0.7259 0.7270 0.7280 0.7280 0.7280
2710.376197 0.7270 0.7260 0.7225 0.7190 0.7125
2715.288871 0.7060 0.7030 0.7000 0.6975 0.6950
2720.201545 0.6876 0.6801 0.6780 0.6760 0.6735
2725.114218 0.6710 0.6680 0.6650 0.6630 0.6610
2730.026892 0.6580 0.6550 0.6505 0.6460 0.6435
2734.939566 0.6410 0.6375 0.6340 0.6330 0.6320
2739.852239 0.6310 0.6300 0.6295 0.6290 0.6290
2744.764913 0.6290 0.6295 0.6300 0.6310 0.6320
2749.677587 0.6320 0.6320 0.6325 0.6330 0.6330
2754.590260 0.6330 0.6325 0.6320 0.6320 0.6320
2759.502934 0.6310 0.6300 0.6256 0.6211 0.6146
2764.415608 0.6081 0.6045 0.6009 0.5899 0.5789
2769.328281 0.5549 0.5310 0.5165 0.5020 0.4656
2774.240955 0.4291 0.4225 0.4160 0.4160 0.4160
2779.153629 0.4319 0.4478 0.4579 0.4679 0.4739
2784.066303 0.4799 0.4820 0.4840 0.4840 0.4840
2788.978976 0.4745 0.4650 0.4515 0.4380 0.4255
2793.891650 0.4130 0.4001 0.3871 0.3646 0.3422
2798.804324 0.3177 0.2932 0.2851 0.2771 0.2691
2803.716997 0.2611 0.2600 0.2590 0.2595 0.2600
2808.629671 0.2645 0.2690 0.2740 0.2790 0.2835
2813.542345 0.2880 0.2970 0.3059 0.3139 0.3219
2818.455018 0.3299 0.3379 0.3454 0.3529 0.3515
2823.367692 0.3500 0.3450 0.3400 0.3395 0.3390
2828.280366 0.3315 0.3240 0.3140 0.3040 0.2965
2833.193040 0.2890 0.2766 0.2641 0.2575 0.2510
2838.105713 0.2327 0.2142 0.1977 0.1812 0.1543
2843.018387 0.1274 0.1041 0.0809 0.0659 0.0510
2847.931061 0.0385 0.0260 0.0215 0.0170 0.0105
2852.843734 0.0040 0.0025 0.0010 0.0005 0.0000
2857.756408 0.0000 0.0000 0.0000 0.0000 0.0000
2862.669082 0.0000 0.0000 0.0000 0.0000 0.0000
2867.581755 0.0000 0.0000 0.0005 0.0010 0.0025
2872.494429 0.0040 0.0060 0.0080 0.0090 0.0100
2877.407103 0.0159 0.0219 0.0255 0.0290 0.0334
2882.319777 0.0379 0.0435 0.0490 0.0540 0.0590
2887.232450 0.0630 0.0670 0.0730 0.0790 0.0855
2892.145124 0.0920 0.0935 0.0950 0.0955 0.0960
2897.057798 0.0965 0.0970 0.1005 0.1040 0.1070
2901.970471 0.1100 0.1190 0.1281 0.1446 0.1611
2906.883145 0.1755 0.1900 0.2040 0.2180 0.2295
2911.795819 0.2410 0.2470 0.2530 0.2550 0.2570
2916.708492 0.2570 0.2570 0.2491 0.2411 0.2311
2921.621166 0.2211 0.2076 0.1939 0.1804 0.1670
2926.533840 0.1545 0.1420 0.1195 0.0970 0.0925
2931.446514 0.0880 0.0845 0.0810 0.0800 0.0790
2936.359187 0.0800 0.0810 0.0899 0.0989 0.1069
2941.271861 0.1149 0.1304 0.1461 0.1576 0.1690
2946.184535 0.1695 0.1700 0.1735 0.1770 0.1795
2951.097208 0.1820 0.1825 0.1830 0.1840 0.1850
2956.009882 0.1835 0.1820 0.1795 0.1770 0.1731
2960.922556 0.1691 0.1341 0.0989 0.0874 0.0760
2965.835229 0.0695 0.0630 0.0545 0.0460 0.0375
2970.747903 0.0290 0.0210 0.0130 0.0065 0.0000
2975.660577 0.0000 0.0000 0.0000 0.0000 0.0000
2980.573251 0.0000 0.0030 0.0060 0.0120 0.0180
2985.485924 0.0235 0.0290 0.0335 0.0380 0.0410
2990.398598 0.0440 0.0644 0.0849 0.0959 0.1069
2995.311272 0.1169 0.1269 0.1557 0.1846 0.2161
3000.223945 0.2476 0.2794 0.3112 0.3447 0.3781
3005.136619 0.4021 0.4260 0.4390 0.4520 0.4745
3010.049293 0.4969 0.5114 0.5259 0.5364 0.5469
3014.961966 0.5525 0.5579 0.5634 0.5689 0.5779
3019.874640 0.5869 0.6024 0.6181 0.6280 0.6380
3024.787314 0.6475 0.6570 0.6620 0.6670 0.6715
3029.699988 0.6760 0.6840 0.6920 0.7000 0.7079
3034.612661 0.7130 0.7180 0.7220 0.7260 0.7299
3039.525335 0.7339 0.7380 0.7420 0.7500 0.7580
3044.438009 0.7600 0.7620 0.7635 0.7650 0.7675
3049.350682 0.7700 0.7745 0.7790 0.7810 0.7830
3054.263356 0.7840 0.7850 0.7855 0.7860 0.7875
3059.176030 0.7890 0.7920 0.7950 0.7960 0.7970
3064.088703 0.7995 0.8020 0.8055 0.8090 0.8105
3069.001377 0.8120 0.8120 0.8120 0.8125 0.8130
3073.914051 0.8145 0.8160 0.8165 0.8170 0.8175
3078.826725 0.8180 0.8190 0.8200 0.8200 0.8200
3083.739398 0.8205 0.8210 0.8215 0.8220 0.8230
3088.652072 0.8240 0.8245 0.8250 0.8265 0.8280
3093.564746 0.8285 0.8290 0.8290 0.8290 0.8295
3098.477419 0.8300 0.8310 0.8320 0.8330 0.8340
3103.390093 0.8360 0.8380 0.8390 0.8400 0.8400
3108.302767 0.8400 0.8400 0.8400 0.8405 0.8410
3113.215440 0.8410 0.8410 0.8410 0.8410 0.8410
3118.128114 0.8410 0.8415 0.8420 0.8455 0.8490
3123.040788 0.8525 0.8560 0.8580 0.8600 0.8605
3127.953462 0.8610 0.8620 0.8630 0.8635 0.8640
3132.866135 0.8645 0.8650 0.8650 0.8650 0.8650
3137.778809 0.8650 0.8645 0.8640 0.8640 0.8640
3142.691483 0.8645 0.8650 0.8650 0.8650 0.8660
3147.604156 0.8670 0.8670 0.8670 0.8670 0.8670
3152.516830 0.8660 0.8650 0.8650 0.8650 0.8650
3157.429504 0.8650 0.8650 0.8650 0.8660 0.8670
3162.342177 0.8655 0.8640 0.8640 0.8640 0.8635
3167.254851 0.8630 0.8630 0.8630 0.8630 0.8630
3172.167525 0.8630 0.8630 0.8635 0.8640 0.8640
3177.080199 0.8640 0.8640 0.8640 0.8640 0.8640
3181.992872 0.8635 0.8630 0.8630 0.8630 0.8630
3186.905546 0.8630 0.8620 0.8610 0.8610 0.8610
3191.818220 0.8610 0.8610 0.8620 0.8630 0.8620
3196.730893 0.8610 0.8610 0.8610 0.8610 0.8610
3201.643567 0.8605 0.8600 0.8600 0.8600 0.8595
3206.556241 0.8590 0.8590 0.8590 0.8590 0.8590
3211.468914 0.8595 0.8600 0.8600 0.8600 0.8600
3216.381588 0.8600 0.8615 0.8630 0.8635 0.8640
3221.294262 0.8640 0.8640 0.8645 0.8650 0.8650
3226.206936 0.8650 0.8650 0.8650 0.8660 0.8670
3231.119609 0.8680 0.8690 0.8700 0.8710 0.8715
3236.032283 0.8720 0.8725 0.8730 0.8730 0.8730
3240.944957 0.8740 0.8750 0.8760 0.8770 0.8770
3245.857630 0.8770 0.8780 0.8790 0.8800 0.8810
3250.770304 0.8820 0.8830 0.8830 0.8830 0.8835
3255.682978 0.8840 0.8845 0.8850 0.8850 0.8850
3260.595651 0.8850 0.8850 0.8860 0.8870 0.8870
3265.508325 0.8870 0.8870 0.8870 0.8870 0.8870
3270.420999 0.8860 0.8850 0.8845 0.8840 0.8840
3275.333673 0.8840 0.8840 0.8840 0.8845 0.8850
3280.246346 0.8860 0.8870 0.8880 0.8890 0.8900
3285.159020 0.8910 0.8910 0.8910 0.8910 0.8910
3290.071694 0.8910 0.8910 0.8900 0.8890 0.8885
3294.984367 0.8880 0.8880 0.8880 0.8875 0.8870
3299.897041 0.8870 0.8870 0.8870 0.8870 0.8870
3304.809715 0.8870 0.8870 0.8870 0.8870 0.8870
3309.722388 0.8870 0.8870 0.8870 0.8870 0.8870
3314.635062 0.8870 0.8870 0.8870 0.8870 0.8870
3319.547736 0.8870 0.8870 0.8870 0.8870 0.8870
3324.460410 0.8870 0.8870 0.8870 0.8860 0.8850
3329.373083 0.8850 0.8850 0.8850 0.8850 0.8850
3334.285757 0.8850 0.8850 0.8850 0.8850 0.8850
3339.198431 0.8850 0.8850 0.8850 0.8850 0.8850
3344.111104 0.8850 0.8850 0.8850 0.8845 0.8840
3349.023778 0.8840 0.8840 0.8840 0.8840 0.8840
3353.936452 0.8840 0.8840 0.8840 0.8840 0.8840
3358.849125 0.8840 0.8840 0.8840 0.8840 0.8840
3363.761799 0.8840 0.8855 0.8870 0.8870 0.8870
3368.674473 0.8860 0.8850 0.8850 0.8850 0.8845
3373.587147 0.8840 0.8840 0.8840 0.8835 0.8830
3378.499820 0.8830 0.8830 0.8835 0.8840 0.8845
3383.412494 0.8850 0.8845 0.8840 0.8835 0.8830
3388.325168 0.8830 0.8830 0.8820 0.8810 0.8810
3393.237841 0.8810 0.8820 0.8830 0.8830 0.8830
3398.150515 0.8820 0.8810 0.8820 0.8830 0.8820
3403.063189 0.8810 0.8805 0.8800 0.8795 0.8790
3407.975862 0.8790 0.8790 0.8780 0.8770 0.8765
3412.888536 0.8760 0.8760 0.8760 0.8755 0.8750
3417.801210 0.8740 0.8730 0.8730 0.8730 0.8740
3422.713884 0.8750 0.8755 0.8760 0.8775 0.8790
3427.626557 0.8795 0.8800 0.8805 0.8810 0.8810
3432.539231 0.8810 0.8805 0.8800 0.8805 0.8810
3437.451905 0.8810 0.8810 0.8820 0.8830 0.8830
3442.364578 0.8830 0.8830 0.8830 0.8830 0.8830
3447.277252 0.8830 0.8830 0.8820 0.8810 0.8810
3452.189926 0.8810 0.8805 0.8800 0.8800 0.8800
3457.102599 0.8800 0.8800 0.8805 0.8810 0.8810
3462.015273 0.8810 0.8805 0.8800 0.8795 0.8790
3466.927947 0.8790 0.8790 0.8790 0.8790 0.8790
3471.840621 0.8790 0.8790 0.8790 0.8790 0.8790
3476.753294 0.8780 0.8770 0.8780 0.8790 0.8790
3481.665968 0.8790 0.8790 0.8790 0.8790 0.8790
3486.578642 0.8790 0.8790 0.8790 0.8790 0.8795
3491.491315 0.8800 0.8800 0.8800 0.8795 0.8790
3496.403989 0.8790 0.8790 0.8795 0.8800 0.8815
3501.316663 0.8830 0.8830 0.8830 0.8820 0.8810
3506.229336 0.8810 0.8810 0.8810 0.8810 0.8820
3511.142010 0.8830 0.8835 0.8840 0.8840 0.8840
3516.054684 0.8825 0.8810 0.8810 0.8810 0.8820
3520.967358 0.8830 0.8835 0.8840 0.8840 0.8840
3525.880031 0.8845 0.8850 0.8850 0.8850 0.8860
3530.792705 0.8870 0.8870 0.8870 0.8870 0.8870
3535.705379 0.8870 0.8870 0.8870 0.8870 0.8870
3540.618052 0.8870 0.8875 0.8880 0.8885 0.8890
3545.530726 0.8890 0.8890 0.8890 0.8890 0.8890
3550.443400 0.8890 0.8890 0.8890 0.8890 0.8890
3555.356073 0.8890 0.8890 0.8890 0.8890 0.8890
3560.268747 0.8890 0.8890 0.8890 0.8900 0.8910
3565.181421 0.8915 0.8920 0.8920 0.8920 0.8920
3570.094095 0.8920 0.8925 0.8930 0.8940 0.8950
3575.006768 0.8950 0.8950 0.8955 0.8960 0.8980
3579.919442 0.9000 0.9010 0.9020 0.9010 0.9000
3584.832116 0.8985 0.8970 0.8960 0.8950 0.8940
3589.744789 0.8930 0.8930 0.8930 0.8930 0.8930
3594.657463 0.8930 0.8930 0.8925 0.8920 0.8920
3599.570137 0.8920 0.8920 0.8920 0.8920 0.8920
3604.482810 0.8920 0.8920 0.8920 0.8920 0.8920
3609.395484 0.8920 0.8920 0.8920 0.8920 0.8920
3614.308158 0.8920 0.8920 0.8920 0.8920 0.8920
3619.220831 0.8920 0.8920 0.8920 0.8920 0.8920
3624.133505 0.8920 0.8920 0.8920 0.8920 0.8920
3629.046179 0.8920 0.8915 0.8910 0.8910 0.8910
3633.958853 0.8910 0.8910 0.8910 0.8910 0.8910
3638.871526 0.8910 0.8900 0.8890 0.8890 0.8890
3643.784200 0.8885 0.8880 0.8880 0.8880 0.8875
3648.696874 0.8870 0.8860 0.8850 0.8845 0.8840
3653.609547 0.8835 0.8830 0.8820 0.8810 0.8810
3658.522221 0.8810 0.8805 0.8800 0.8795 0.8790
3663.434895 0.8790 0.8790 0.8790 0.8790 0.8790
3668.347568 0.8790 0.8780 0.8770 0.8765 0.8760
3673.260242 0.8755 0.8750 0.8740 0.8730 0.8730
3678.172916 0.8730 0.8730 0.8730 0.8725 0.8720
3683.085590 0.8715 0.8710 0.8710 0.8710 0.8710
3687.998263 0.8710 0.8715 0.8720 0.8725 0.8730
3692.910937 0.8740 0.8750 0.8755 0.8760 0.8760
3697.823611 0.8760 0.8765 0.8770 0.8785 0.8800
3702.736284 0.8800 0.8800 0.8805 0.8810 0.8820
3707.648958 0.8830 0.8830 0.8830 0.8830 0.8830
3712.561632 0.8835 0.8840 0.8845 0.8850 0.8850
3717.474305 0.8850 0.8850 0.8850 0.8850 0.8850
3722.386979 0.8850 0.8850 0.8845 0.8840 0.8840
3727.299653 0.8840 0.8835 0.8830 0.8830 0.8830
3732.212327 0.8830 0.8830 0.8830 0.8830 0.8835
3737.125000 0.8840 0.8840 0.8840 0.8880 0.8920
3742.037674 0.8940 0.8960 0.8960 0.8960 0.8955
3746.950348 0.8950 0.8940 0.8930 0.8925 0.8920
3751.863021 0.8920 0.8920 0.8915 0.8910 0.8910
3756.775695 0.8910 0.8910 0.8910 0.8900 0.8890
3761.688369 0.8890 0.8890 0.8885 0.8880 0.8880
3766.601042 0.8880 0.8880 0.8880 0.8880 0.8880
3771.513716 0.8880 0.8880 0.8880 0.8880 0.8880
3776.426390 0.8880 0.8880 0.8880 0.8880 0.8880
3781.339064 0.8875 0.8870 0.8870 0.8870 0.8870
3786.251737 0.8870 0.8870 0.8870 0.8870 0.8870
3791.164411 0.8870
##END=
